COUNTER,INTERPOLATED,RAW_CQ,AF3,F7,F3, FC5, T7, P7, O1, O2,P8, T8, FC6, F4,F8, AF4,GYROX, GYROY, TIMESTAMP, ES_TIMESTAMPFUNC_ID, FUNC_VALUE, MARKER, SYNC_SIGNAL,DateTime
30,0,0,4826.66666666667,4071.79487179487,3995.89743589744,4333.84615384615,4563.58974358974,4538.97435897436,4312.82051282051,3962.05128205128,6530.25641025641,4031.28205128205,4294.35897435897,4232.30769230769,4078.97435897436,4467.17948717949,1666,1691,38.489,38.4158248901367,0,0,0,0,2/8/2015 6:19:23 AM,
31,0,0,4807.17948717949,4062.05128205128,3982.05128205128,4311.28205128205,4532.30769230769,4545.64102564103,4312.82051282051,3966.15384615385,6529.23076923077,4029.74358974359,4275.38461538462,4217.94871794872,4088.20512820513,4429.23076923077,1666,1692,38.498,38.4158248901367,0,0,0,0,2/8/2015 6:19:23 AM,
32,0,0,4795.38461538462,4050.25641025641,3983.07692307692,4304.61538461538,4520,4553.84615384615,4311.79487179487,3968.71794871795,6520,4028.71794871795,4273.33333333333,4221.53846153846,4075.38461538462,4385.12820512821,1668,1693,38.506,38.4158248901367,0,0,0,0,2/8/2015 6:19:23 AM,
33,0,0,4801.53846153846,4047.17948717949,3986.15384615385,4319.48717948718,4545.64102564103,4549.23076923077,4314.8717948718,3975.38461538462,6526.66666666667,4022.5641025641,4281.53846153846,4232.82051282051,4069.23076923077,4428.71794871795,1667,1693,38.513,38.4158248901367,0,0,0,0,2/8/2015 6:19:23 AM,
34,0,0,4802.5641025641,4050.25641025641,3992.30769230769,4325.64102564103,4558.46153846154,4561.02564102564,4320,3983.58974358974,6539.48717948718,4008.20512820513,4284.61538461538,4231.79487179487,4080.51282051282,4474.35897435897,1668,1694,38.521,38.4158248901367,0,0,0,0,2/8/2015 6:19:23 AM,
35,0,0,4796.92307692308,4049.23076923077,3991.28205128205,4318.46153846154,4547.17948717949,4573.33333333333,4322.05128205128,3989.74358974359,6536.41025641026,4007.69230769231,4274.8717948718,4229.23076923077,4070.25641025641,4423.58974358974,1669,1691,38.528,38.4158248901367,0,0,0,0,2/8/2015 6:19:23 AM,
36,0,0,4791.28205128205,4043.58974358974,3977.94871794872,4301.53846153846,4530.25641025641,4571.28205128205,4321.02564102564,3994.8717948718,6514.35897435898,4023.07692307692,4272.82051282051,4230.25641025641,4063.58974358974,4395.89743589744,1668,1693,38.536,38.4158248901367,0,0,0,0,2/8/2015 6:19:23 AM,
37,0,0,4789.23076923077,4040,3976.92307692308,4295.89743589744,4526.15384615385,4575.38461538462,4321.02564102564,4003.58974358974,6509.74358974359,4026.66666666667,4282.5641025641,4228.71794871795,4083.07692307692,4430.76923076923,1669,1693,38.544,38.4158248901367,0,0,0,0,2/8/2015 6:19:23 AM,
38,0,0,4792.30769230769,4046.15384615385,3994.8717948718,4312.30769230769,4553.33333333333,4577.4358974359,4322.05128205128,4015.38461538462,6538.97435897436,4016.41025641026,4275.38461538462,4231.28205128205,4077.94871794872,4429.23076923077,1668,1694,38.552,38.4158248901367,0,0,0,0,2/8/2015 6:19:23 AM,
39,0,0,4790.76923076923,4048.20512820513,4003.58974358974,4328.20512820513,4567.17948717949,4574.8717948718,4321.53846153846,4026.66666666667,6577.94871794872,4000,4260,4236.41025641026,4052.82051282051,4396.41025641026,1668,1696,38.559,38.4158248901367,0,0,0,0,2/8/2015 6:19:23 AM,
40,0,0,4797.94871794872,4040.51282051282,3994.35897435898,4320.51282051282,4544.10256410256,4582.5641025641,4320.51282051282,4035.38461538462,6607.17948717949,3995.38461538462,4266.66666666667,4234.35897435897,4064.10256410256,4421.02564102564,1667,1697,38.567,38.4158248901367,0,0,0,0,2/8/2015 6:19:23 AM,
41,0,0,4820.51282051282,4040.51282051282,3988.71794871795,4311.28205128205,4534.35897435897,4587.69230769231,4322.05128205128,4043.07692307692,6646.66666666667,4013.84615384615,4282.05128205128,4230.25641025641,4090.25641025641,4483.58974358974,1668,1697,38.575,38.4158248901367,0,0,0,0,2/8/2015 6:19:23 AM,
42,0,0,4809.74358974359,4049.23076923077,3991.79487179487,4322.5641025641,4541.02564102564,4582.5641025641,4320.51282051282,4051.28205128205,6722.5641025641,4025.12820512821,4277.94871794872,4230.25641025641,4094.8717948718,4481.53846153846,1667,1696,38.584,38.5409355163574,0,0,0,0,2/8/2015 6:19:23 AM,
43,0,0,4770.25641025641,4042.5641025641,3992.82051282051,4318.46153846154,4543.07692307692,4586.15384615385,4314.35897435897,4062.5641025641,6928.20512820513,4022.05128205128,4271.28205128205,4229.23076923077,4085.64102564103,4425.12820512821,1667,1696,38.591,38.5409355163574,0,0,0,0,2/8/2015 6:19:23 AM,
44,0,0,4785.64102564103,4036.92307692308,3989.23076923077,4307.17948717949,4553.84615384615,4602.05128205128,4311.79487179487,4094.35897435898,7334.35897435898,4031.79487179487,4277.94871794872,4229.23076923077,4091.28205128205,4414.35897435897,1666,1696,38.598,38.5409355163574,0,0,0,0,2/8/2015 6:19:23 AM,
45,0,0,4819.48717948718,4056.41025641026,3989.23076923077,4322.05128205128,4558.46153846154,4619.48717948718,4313.33333333333,4136.92307692308,7715.38461538462,4033.84615384615,4289.74358974359,4231.79487179487,4117.94871794872,4445.12820512821,1666,1697,38.606,38.5409355163574,0,0,0,0,2/8/2015 6:19:23 AM,
46,0,0,4798.97435897436,4059.48717948718,3994.8717948718,4335.89743589744,4544.10256410256,4627.69230769231,4313.84615384615,4161.02564102564,7825.64102564103,4015.89743589744,4286.66666666667,4232.30769230769,4135.89743589744,4458.97435897436,1667,1694,38.614,38.5722122192383,0,0,0,0,2/8/2015 6:19:23 AM,
47,0,0,4786.66666666667,4040,3998.46153846154,4326.15384615385,4547.69230769231,4625.12820512821,4314.35897435897,4177.94871794872,7786.66666666667,4018.97435897436,4263.07692307692,4236.41025641026,4126.66666666667,4461.53846153846,1666,1695,38.622,38.5722122192383,0,0,0,0,2/8/2015 6:19:23 AM,
48,0,0,4810.25641025641,4046.15384615385,4006.66666666667,4316.41025641026,4556.41025641026,4623.58974358974,4313.84615384615,4202.5641025641,7791.28205128205,4031.28205128205,4259.48717948718,4243.58974358974,4116.92307692308,4442.5641025641,1667,1693,38.63,38.5722122192383,0,0,0,0,2/8/2015 6:19:23 AM,
49,0,0,4822.05128205128,4065.64102564103,4013.33333333333,4328.71794871795,4554.8717948718,4627.69230769231,4311.79487179487,4222.5641025641,7800,4028.71794871795,4292.30769230769,4240.51282051282,4133.33333333333,4420.51282051282,1666,1692,38.638,38.5722122192383,0,0,0,0,2/8/2015 6:19:23 AM,
50,0,0,4814.8717948718,4057.94871794872,4001.02564102564,4344.10256410256,4557.94871794872,4634.8717948718,4313.33333333333,4232.30769230769,7775.38461538462,4033.84615384615,4303.58974358974,4232.82051282051,4144.10256410256,4455.38461538462,1666,1693,38.645,38.5722122192383,0,0,0,0,2/8/2015 6:19:23 AM,
51,0,0,4806.66666666667,4046.15384615385,3985.12820512821,4338.46153846154,4555.38461538462,4641.53846153846,4314.35897435897,4234.8717948718,7767.69230769231,4034.35897435898,4271.28205128205,4229.74358974359,4125.12820512821,4491.79487179487,1666,1693,38.653,38.5722122192383,0,0,0,0,2/8/2015 6:19:23 AM,
52,0,0,4797.94871794872,4053.84615384615,3988.20512820513,4323.58974358974,4537.94871794872,4641.53846153846,4312.82051282051,4239.48717948718,7769.23076923077,4021.53846153846,4261.53846153846,4228.20512820513,4113.33333333333,4452.30769230769,1665,1693,38.661,38.5722122192383,0,0,0,0,2/8/2015 6:19:23 AM,
53,0,0,4794.8717948718,4055.89743589744,4002.5641025641,4327.17948717949,4522.05128205128,4624.61538461538,4314.8717948718,4255.38461538462,7767.17948717949,4020,4287.17948717949,4233.84615384615,4130.25641025641,4414.35897435897,1665,1692,38.669,38.5722122192383,0,0,0,0,2/8/2015 6:19:23 AM,
54,0,0,4803.58974358974,4053.84615384615,4006.66666666667,4341.02564102564,4524.10256410256,4604.10256410256,4318.46153846154,4267.17948717949,7767.69230769231,4032.30769230769,4292.30769230769,4238.46153846154,4139.48717948718,4445.64102564103,1665,1693,38.677,38.5722122192383,0,0,0,0,2/8/2015 6:19:23 AM,
55,0,0,4807.69230769231,4050.76923076923,3992.82051282051,4331.79487179487,4543.58974358974,4609.23076923077,4320.51282051282,4267.69230769231,7768.71794871795,4036.92307692308,4276.92307692308,4221.53846153846,4126.66666666667,4474.8717948718,1665,1694,38.684,38.5722122192383,0,0,0,0,2/8/2015 6:19:23 AM,
56,0,0,4799.48717948718,4040,3977.94871794872,4313.84615384615,4562.05128205128,4635.38461538462,4319.48717948718,4277.94871794872,7768.71794871795,4034.35897435898,4276.41025641026,4211.79487179487,4120.51282051282,4458.46153846154,1664,1694,38.692,38.5722122192383,0,0,0,0,2/8/2015 6:19:23 AM,
57,0,0,4793.84615384615,4036.41025641026,3989.74358974359,4314.8717948718,4546.66666666667,4636.41025641026,4315.38461538462,4291.28205128205,7768.71794871795,4031.79487179487,4284.10256410256,4227.17948717949,4124.61538461538,4435.38461538462,1666,1692,38.7,38.5722122192383,0,0,0,0,2/8/2015 6:19:23 AM,
58,0,0,4801.02564102564,4041.53846153846,4002.5641025641,4321.53846153846,4519.48717948718,4615.38461538462,4312.82051282051,4293.33333333333,7768.71794871795,4033.84615384615,4271.28205128205,4228.71794871795,4120.51282051282,4423.58974358974,1664,1692,38.708,38.6660423278809,0,0,0,0,2/8/2015 6:19:23 AM,
59,0,0,4801.53846153846,4046.66666666667,3994.8717948718,4328.71794871795,4520.51282051282,4613.84615384615,4312.82051282051,4303.58974358974,7768.71794871795,4037.4358974359,4265.12820512821,4216.41025641026,4118.46153846154,4434.8717948718,1664,1690,38.716,38.6660423278809,0,0,0,0,2/8/2015 6:19:23 AM,
60,0,0,4796.41025641026,4055.38461538462,3998.97435897436,4339.48717948718,4543.58974358974,4619.48717948718,4313.84615384615,4324.61538461538,7768.71794871795,4033.33333333333,4280.51282051282,4222.05128205128,4130.25641025641,4459.48717948718,1664,1691,38.724,38.6660423278809,0,0,0,0,2/8/2015 6:19:23 AM,
61,0,0,4800.51282051282,4060.51282051282,4012.30769230769,4336.41025641026,4557.94871794872,4612.30769230769,4314.35897435897,4342.05128205128,7768.71794871795,4037.94871794872,4288.20512820513,4236.41025641026,4141.02564102564,4463.07692307692,1664,1692,38.731,38.6660423278809,0,0,0,0,2/8/2015 6:19:23 AM,
62,0,0,4798.97435897436,4054.35897435898,4010.25641025641,4329.74358974359,4551.28205128205,4612.30769230769,4314.35897435897,4361.53846153846,7768.71794871795,4055.89743589744,4283.07692307692,4235.38461538462,4141.53846153846,4450.25641025641,1664,1692,38.739,38.6660423278809,0,0,0,0,2/8/2015 6:19:23 AM,
63,0,0,4796.92307692308,4051.79487179487,4005.64102564103,4341.02564102564,4538.46153846154,4624.10256410256,4312.30769230769,4382.5641025641,7768.71794871795,4061.53846153846,4274.35897435897,4226.15384615385,4130.76923076923,4433.84615384615,1664,1692,38.747,38.6660423278809,0,0,0,0,2/8/2015 6:19:23 AM,
64,0,460,4801.02564102564,4046.66666666667,3998.97435897436,4342.05128205128,4537.94871794872,4612.82051282051,4312.82051282051,4387.69230769231,7768.71794871795,4050.76923076923,4269.23076923077,4216.92307692308,4124.10256410256,4419.48717948718,1665,1692,38.755,38.6660423278809,0,0,0,0,2/8/2015 6:19:23 AM,
65,0,442,4788.71794871795,4036.41025641026,3988.71794871795,4324.61538461538,4545.64102564103,4582.5641025641,4314.8717948718,4386.15384615385,7768.71794871795,4047.17948717949,4274.8717948718,4211.28205128205,4134.8717948718,4430.76923076923,1664,1692,38.763,38.6660423278809,0,0,0,0,2/8/2015 6:19:23 AM,
66,0,462,4766.15384615385,4045.12820512821,3999.48717948718,4329.23076923077,4535.38461538462,4580.51282051282,4311.79487179487,4396.92307692308,7768.71794871795,4050.25641025641,4288.71794871795,4218.97435897436,4138.46153846154,4448.20512820513,1664,1691,38.77,38.6660423278809,0,0,0,0,2/8/2015 6:19:23 AM,
67,0,492,4768.20512820513,4049.23076923077,4008.71794871795,4337.94871794872,4515.89743589744,4596.41025641026,4310.25641025641,4404.10256410256,7768.71794871795,4045.12820512821,4280.51282051282,4220,4123.58974358974,4438.97435897436,1663,1691,38.778,38.6660423278809,0,0,0,0,2/8/2015 6:19:23 AM,
68,0,490,4783.58974358974,4034.8717948718,3989.23076923077,4330.25641025641,4523.07692307692,4592.82051282051,4313.33333333333,4396.92307692308,7768.71794871795,4045.12820512821,4261.53846153846,4208.20512820513,4117.4358974359,4410.76923076923,1665,1690,38.786,38.6660423278809,0,0,0,0,2/8/2015 6:19:23 AM,
69,0,181,4790.25641025641,4036.41025641026,3980.51282051282,4327.17948717949,4551.28205128205,4577.4358974359,4314.35897435897,4401.02564102564,7768.71794871795,4050.76923076923,4265.64102564103,4201.02564102564,4126.15384615385,4401.02564102564,1664,1692,38.794,38.6660423278809,0,0,0,0,2/8/2015 6:19:23 AM,
70,0,487,4788.71794871795,4046.15384615385,3991.28205128205,4318.97435897436,4557.94871794872,4583.58974358974,4312.82051282051,4411.28205128205,7768.71794871795,4040.51282051282,4271.28205128205,4200.51282051282,4124.10256410256,4425.64102564103,1665,1692,38.802,38.6660423278809,0,0,0,0,2/8/2015 6:19:23 AM,
71,0,0,4781.53846153846,4046.15384615385,3993.84615384615,4314.8717948718,4540.51282051282,4590.76923076923,4312.82051282051,4408.20512820513,7768.71794871795,4027.69230769231,4266.15384615385,4207.17948717949,4119.48717948718,4443.58974358974,1664,1692,38.81,38.6660423278809,0,0,0,0,2/8/2015 6:19:23 AM,
72,0,407,4778.46153846154,4047.69230769231,3988.20512820513,4329.23076923077,4527.69230769231,4560,4314.35897435897,4404.61538461538,7768.71794871795,4033.33333333333,4266.66666666667,4216.92307692308,4121.53846153846,4429.23076923077,1665,1693,38.817,38.6660423278809,0,0,0,0,2/8/2015 6:19:23 AM,
73,0,427,4784.61538461539,4047.17948717949,3989.74358974359,4341.02564102564,4506.66666666667,4533.33333333333,4313.84615384615,4410.25641025641,7768.71794871795,4047.17948717949,4270.25641025641,4210.76923076923,4121.02564102564,4424.10256410256,1665,1692,38.825,38.6660423278809,0,0,0,0,2/8/2015 6:19:23 AM,
74,0,431,4785.12820512821,4045.12820512821,3997.4358974359,4336.92307692308,4508.71794871795,4554.35897435897,4313.33333333333,4418.46153846154,7768.71794871795,4051.79487179487,4263.58974358974,4197.4358974359,4120.51282051282,4431.79487179487,1665,1694,38.833,38.7911491394043,0,0,0,0,2/8/2015 6:19:23 AM,
75,0,452,4775.89743589744,4050.25641025641,3997.94871794872,4323.07692307692,4547.17948717949,4582.5641025641,4313.84615384615,4426.66666666667,7768.71794871795,4052.82051282051,4267.17948717949,4206.15384615385,4122.5641025641,4417.94871794872,1665,1694,38.841,38.7911491394043,0,0,0,0,2/8/2015 6:19:23 AM,
76,0,409,4781.02564102564,4058.97435897436,3994.8717948718,4320,4556.92307692308,4589.74358974359,4313.84615384615,4436.41025641026,7768.71794871795,4050.76923076923,4278.97435897436,4216.92307692308,4120,4420.51282051282,1664,1694,38.849,38.7911491394043,0,0,0,0,2/8/2015 6:19:23 AM,
77,0,441,4787.69230769231,4064.61538461539,3999.48717948718,4336.92307692308,4535.38461538462,4585.64102564103,4313.84615384615,4447.17948717949,7768.71794871795,4048.71794871795,4269.74358974359,4204.10256410256,4120,4460.51282051282,1665,1694,38.859,38.7911491394043,0,0,0,0,2/8/2015 6:19:23 AM,
78,0,431,4794.35897435897,4068.71794871795,4005.12820512821,4346.15384615385,4536.41025641026,4576.92307692308,4313.84615384615,4456.41025641026,7768.71794871795,4049.74358974359,4261.02564102564,4192.30769230769,4133.84615384615,4476.92307692308,1664,1693,38.865,38.7911491394043,0,0,0,0,2/8/2015 6:19:24 AM,
79,0,452,4812.30769230769,4065.12820512821,4002.5641025641,4336.92307692308,4532.82051282051,4572.30769230769,4313.33333333333,4464.61538461538,7768.71794871795,4048.20512820513,4268.71794871795,4202.5641025641,4133.84615384615,4435.89743589744,1665,1691,38.874,38.7911491394043,0,0,0,0,2/8/2015 6:19:24 AM,
80,0,409,4817.4358974359,4061.53846153846,4003.58974358974,4342.05128205128,4512.82051282051,4563.07692307692,4314.35897435897,4474.35897435897,7768.71794871795,4050.76923076923,4275.38461538462,4217.94871794872,4126.15384615385,4406.15384615385,1664,1692,38.882,38.7911491394043,0,0,0,0,2/8/2015 6:19:24 AM,
81,0,441,4815.38461538462,4070.76923076923,4009.23076923077,4346.15384615385,4533.33333333333,4554.35897435897,4314.35897435897,4481.02564102564,7768.71794871795,4059.48717948718,4275.89743589744,4219.48717948718,4132.30769230769,4441.53846153846,1664,1690,38.889,38.7911491394043,0,0,0,0,2/8/2015 6:19:24 AM,
82,0,431,4828.71794871795,4084.61538461539,4014.8717948718,4342.5641025641,4560,4574.35897435897,4311.28205128205,4476.41025641026,7768.71794871795,4061.53846153846,4271.79487179487,4216.92307692308,4130.25641025641,4474.8717948718,1663,1691,38.926,38.7911491394043,0,0,0,0,2/8/2015 6:19:24 AM,
83,0,452,4836.92307692308,4088.71794871795,4020.51282051282,4357.94871794872,4553.84615384615,4583.07692307692,4311.79487179487,4473.33333333333,7768.71794871795,4058.46153846154,4274.35897435897,4220,4123.07692307692,4463.07692307692,1664,1691,38.928,38.7911491394043,0,0,0,0,2/8/2015 6:19:24 AM,
84,0,409,4832.82051282051,4088.71794871795,4014.35897435898,4363.58974358974,4551.79487179487,4558.97435897436,4314.8717948718,4478.46153846154,7768.71794871795,4058.46153846154,4287.69230769231,4218.97435897436,4140,4462.05128205128,1663,1691,38.928,38.7911491394043,0,0,0,0,2/8/2015 6:19:24 AM,
85,0,441,4823.58974358974,4087.17948717949,3999.48717948718,4344.10256410256,4544.10256410256,4559.48717948718,4310.25641025641,4476.92307692308,7768.71794871795,4051.28205128205,4288.20512820513,4210.76923076923,4151.79487179487,4465.64102564103,1664,1691,38.928,38.7911491394043,0,0,0,0,2/8/2015 6:19:24 AM,
86,0,431,4798.97435897436,4077.4358974359,4002.05128205128,4336.41025641026,4517.94871794872,4577.94871794872,4305.12820512821,4474.35897435897,7768.71794871795,4044.61538461539,4272.82051282051,4211.28205128205,4131.79487179487,4436.41025641026,1664,1692,38.928,38.7911491394043,0,0,0,0,2/8/2015 6:19:24 AM,
87,0,452,4792.82051282051,4074.35897435898,4008.71794871795,4345.12820512821,4525.12820512821,4565.12820512821,4308.20512820513,4482.5641025641,7768.71794871795,4055.38461538462,4270.76923076923,4217.94871794872,4121.53846153846,4422.05128205128,1665,1692,38.936,38.7911491394043,0,0,0,0,2/8/2015 6:19:24 AM,
88,0,409,4813.33333333333,4077.4358974359,3995.38461538462,4341.02564102564,4550.76923076923,4545.12820512821,4313.33333333333,4490.25641025641,7768.71794871795,4062.5641025641,4269.74358974359,4212.30769230769,4123.58974358974,4421.02564102564,1663,1692,38.944,38.7911491394043,0,0,0,0,2/8/2015 6:19:24 AM,
89,0,441,4805.64102564103,4068.71794871795,3983.58974358974,4339.48717948718,4525.12820512821,4549.74358974359,4313.33333333333,4495.89743589744,7768.71794871795,4050.76923076923,4260.51282051282,4198.97435897436,4116.92307692308,4420,1666,1691,38.951,38.7911491394043,0,0,0,0,2/8/2015 6:19:24 AM,
90,0,431,4780,4065.64102564103,3987.17948717949,4344.10256410256,4500.51282051282,4564.61538461538,4313.33333333333,4504.10256410256,7768.71794871795,4041.53846153846,4260.51282051282,4193.33333333333,4115.89743589744,4425.12820512821,1664,1690,38.96,38.9162559509277,0,0,0,0,2/8/2015 6:19:24 AM,
91,0,452,4777.4358974359,4072.30769230769,3991.79487179487,4330.76923076923,4527.69230769231,4573.33333333333,4312.82051282051,4511.79487179487,7768.71794871795,4043.07692307692,4265.64102564103,4198.97435897436,4120,4422.5641025641,1665,1691,38.968,38.9162559509277,0,0,0,0,2/8/2015 6:19:24 AM,
92,0,409,4789.74358974359,4067.69230769231,3999.48717948718,4325.64102564103,4548.71794871795,4569.74358974359,4312.30769230769,4521.02564102564,7768.71794871795,4045.12820512821,4264.61538461538,4208.71794871795,4120.51282051282,4421.53846153846,1666,1690,38.974,38.9162559509277,0,0,0,0,2/8/2015 6:19:24 AM,
93,0,441,4805.64102564103,4064.61538461539,4006.66666666667,4349.23076923077,4534.35897435897,4558.46153846154,4309.23076923077,4534.8717948718,7768.71794871795,4053.33333333333,4264.10256410256,4214.8717948718,4122.5641025641,4429.74358974359,1665,1691,38.982,38.9162559509277,0,0,0,0,2/8/2015 6:19:24 AM,
94,0,431,4817.94871794872,4074.35897435898,3996.41025641026,4365.64102564103,4528.20512820513,4556.41025641026,4306.15384615385,4541.02564102564,7768.71794871795,4061.02564102564,4269.74358974359,4210.76923076923,4135.38461538462,4441.02564102564,1666,1691,38.989,38.9162559509277,0,0,0,0,2/8/2015 6:19:24 AM,
95,0,452,4804.61538461539,4080,3986.66666666667,4342.5641025641,4542.5641025641,4568.20512820513,4309.23076923077,4540.51282051282,7768.71794871795,4055.38461538462,4274.35897435897,4212.30769230769,4141.53846153846,4440,1665,1691,38.997,38.9162559509277,0,0,0,0,2/8/2015 6:19:24 AM,
96,0,409,4777.94871794872,4076.41025641026,3995.38461538462,4321.02564102564,4549.74358974359,4572.82051282051,4311.79487179487,4542.5641025641,7768.71794871795,4053.33333333333,4270.76923076923,4217.94871794872,4129.23076923077,4438.46153846154,1666,1691,39.006,38.9162559509277,0,0,0,0,2/8/2015 6:19:24 AM,
97,0,441,4765.64102564103,4068.20512820513,3998.46153846154,4330.25641025641,4537.4358974359,4564.61538461538,4308.71794871795,4537.94871794872,7768.71794871795,4056.92307692308,4263.58974358974,4206.15384615385,4116.92307692308,4447.17948717949,1665,1692,39.014,38.9162559509277,0,0,0,0,2/8/2015 6:19:24 AM,
98,0,431,4781.53846153846,4067.17948717949,3994.35897435898,4344.10256410256,4525.64102564103,4570.25641025641,4307.17948717949,4535.38461538462,7768.71794871795,4052.30769230769,4267.17948717949,4203.58974358974,4127.69230769231,4443.07692307692,1665,1691,39.022,38.9162559509277,0,0,0,0,2/8/2015 6:19:24 AM,
99,0,452,4812.82051282051,4075.89743589744,4002.05128205128,4349.23076923077,4518.46153846154,4566.15384615385,4308.71794871795,4541.02564102564,7768.71794871795,4048.71794871795,4268.71794871795,4220.51282051282,4142.05128205128,4415.89743589744,1664,1692,39.03,38.9162559509277,0,0,0,0,2/8/2015 6:19:24 AM,
100,0,409,4807.69230769231,4076.41025641026,4006.66666666667,4339.48717948718,4521.02564102564,4542.5641025641,4308.20512820513,4541.02564102564,7768.71794871795,4057.94871794872,4260,4216.41025641026,4129.74358974359,4421.02564102564,1665,1692,39.037,38.9162559509277,0,0,0,0,2/8/2015 6:19:24 AM,
101,0,441,4781.53846153846,4071.79487179487,3991.79487179487,4325.64102564103,4551.79487179487,4547.17948717949,4307.17948717949,4543.07692307692,7768.71794871795,4061.53846153846,4263.07692307692,4203.07692307692,4121.02564102564,4470.76923076923,1665,1692,39.045,38.9162559509277,0,0,0,0,2/8/2015 6:19:24 AM,
102,0,431,4788.71794871795,4072.30769230769,3984.10256410256,4331.79487179487,4568.71794871795,4557.4358974359,4311.28205128205,4551.79487179487,7768.71794871795,4056.92307692308,4267.17948717949,4210.76923076923,4133.33333333333,4463.07692307692,1665,1693,39.053,38.9162559509277,0,0,0,0,2/8/2015 6:19:24 AM,
103,0,452,4796.92307692308,4081.02564102564,4003.07692307692,4352.30769230769,4536.41025641026,4551.28205128205,4313.33333333333,4558.97435897436,7768.71794871795,4060,4266.66666666667,4219.48717948718,4138.97435897436,4431.79487179487,1665,1692,39.061,38.9162559509277,0,0,0,0,2/8/2015 6:19:24 AM,
104,0,409,4782.05128205128,4083.58974358974,4015.38461538462,4353.33333333333,4521.02564102564,4563.58974358974,4312.82051282051,4563.07692307692,7768.71794871795,4063.58974358974,4279.48717948718,4213.84615384615,4139.48717948718,4451.79487179487,1664,1694,39.068,38.9162559509277,0,0,0,0,2/8/2015 6:19:24 AM,
105,0,441,4786.15384615385,4072.30769230769,4001.53846153846,4340,4538.97435897436,4567.17948717949,4311.79487179487,4562.05128205128,7768.71794871795,4064.10256410256,4278.46153846154,4213.33333333333,4140.51282051282,4454.8717948718,1664,1693,39.075,38.9162559509277,0,0,0,0,2/8/2015 6:19:24 AM,
106,0,431,4805.12820512821,4065.64102564103,3995.38461538462,4338.46153846154,4543.58974358974,4541.53846153846,4311.79487179487,4563.07692307692,7768.71794871795,4062.5641025641,4257.4358974359,4221.02564102564,4131.79487179487,4429.74358974359,1664,1694,39.083,39.0413627624512,0,0,0,0,2/8/2015 6:19:24 AM,
107,0,452,4800,4072.82051282051,4007.17948717949,4343.07692307692,4547.17948717949,4538.46153846154,4312.82051282051,4568.20512820513,7768.71794871795,4061.53846153846,4264.10256410256,4221.53846153846,4134.35897435897,4453.33333333333,1664,1693,39.091,39.0413627624512,0,0,0,0,2/8/2015 6:19:24 AM,
108,0,409,4793.84615384615,4084.10256410256,4006.15384615385,4350.76923076923,4560.51282051282,4560,4311.79487179487,4570.25641025641,7768.71794871795,4062.5641025641,4286.66666666667,4215.89743589744,4151.79487179487,4483.07692307692,1663,1693,39.1,39.0413627624512,0,0,0,0,2/8/2015 6:19:24 AM,
109,0,441,4801.02564102564,4084.10256410256,4000.51282051282,4346.15384615385,4548.20512820513,4561.53846153846,4308.20512820513,4566.66666666667,7768.71794871795,4060.51282051282,4282.5641025641,4222.5641025641,4146.66666666667,4438.97435897436,1663,1693,39.108,39.0413627624512,0,0,0,0,2/8/2015 6:19:24 AM,
110,0,431,4794.8717948718,4070.76923076923,4011.28205128205,4332.82051282051,4521.53846153846,4548.20512820513,4308.71794871795,4565.12820512821,7768.71794871795,4056.41025641026,4274.8717948718,4237.4358974359,4132.30769230769,4410.76923076923,1663,1693,39.116,39.072639465332,0,0,0,0,2/8/2015 6:19:24 AM,
111,0,452,4793.84615384615,4072.30769230769,4016.92307692308,4348.71794871795,4531.79487179487,4542.5641025641,4312.82051282051,4566.66666666667,7768.71794871795,4065.12820512821,4274.8717948718,4237.4358974359,4135.89743589744,4456.41025641026,1664,1693,39.123,39.072639465332,0,0,0,0,2/8/2015 6:19:24 AM,
112,0,409,4801.02564102564,4090.76923076923,4016.92307692308,4368.20512820513,4553.84615384615,4540.51282051282,4314.35897435897,4563.58974358974,7768.71794871795,4078.97435897436,4263.58974358974,4232.30769230769,4136.92307692308,4464.10256410256,1663,1692,39.131,39.072639465332,0,0,0,0,2/8/2015 6:19:24 AM,
113,0,441,4793.84615384615,4090.25641025641,4021.02564102564,4353.84615384615,4547.69230769231,4527.69230769231,4312.30769230769,4558.46153846154,7768.71794871795,4075.38461538462,4262.05128205128,4234.8717948718,4135.38461538462,4424.61538461538,1663,1694,39.139,39.072639465332,0,0,0,0,2/8/2015 6:19:24 AM,
114,0,431,4794.35897435897,4078.97435897436,4020,4343.58974358974,4540.51282051282,4521.02564102564,4312.30769230769,4560.51282051282,7768.71794871795,4060.51282051282,4278.46153846154,4234.35897435897,4141.53846153846,4432.82051282051,1664,1691,39.147,39.072639465332,0,0,0,0,2/8/2015 6:19:24 AM,
115,0,452,4811.79487179487,4085.12820512821,4017.94871794872,4355.89743589744,4555.38461538462,4544.61538461538,4316.41025641026,4572.82051282051,7768.71794871795,4056.92307692308,4289.74358974359,4231.28205128205,4146.15384615385,4471.28205128205,1663,1692,39.155,39.072639465332,0,0,0,0,2/8/2015 6:19:24 AM,
116,0,409,4805.12820512821,4079.48717948718,4016.92307692308,4350.25641025641,4558.46153846154,4552.30769230769,4320,4568.71794871795,7768.71794871795,4058.46153846154,4283.58974358974,4232.82051282051,4139.48717948718,4457.4358974359,1664,1690,39.162,39.072639465332,0,0,0,0,2/8/2015 6:19:24 AM,
117,0,441,4778.97435897436,4058.46153846154,4010.76923076923,4334.35897435897,4536.41025641026,4523.07692307692,4319.48717948718,4548.20512820513,7768.71794871795,4048.71794871795,4260,4234.8717948718,4121.53846153846,4422.05128205128,1664,1691,39.17,39.072639465332,0,0,0,0,2/8/2015 6:19:24 AM,
118,0,431,4789.74358974359,4069.74358974359,4006.15384615385,4343.58974358974,4533.33333333333,4525.12820512821,4318.46153846154,4551.28205128205,7769.23076923077,4051.79487179487,4251.79487179487,4233.33333333333,4120,4438.97435897436,1664,1691,39.178,39.072639465332,0,0,0,0,2/8/2015 6:19:24 AM,
119,0,452,4815.89743589744,4097.4358974359,4015.89743589744,4362.05128205128,4550.76923076923,4546.66666666667,4318.97435897436,4566.66666666667,7768.71794871795,4074.35897435898,4280,4237.4358974359,4144.61538461538,4459.48717948718,1663,1691,39.186,39.072639465332,0,0,0,0,2/8/2015 6:19:24 AM,
120,0,409,4816.41025641026,4099.48717948718,4026.66666666667,4367.17948717949,4559.48717948718,4531.28205128205,4318.46153846154,4558.97435897436,7768.20512820513,4076.92307692308,4306.15384615385,4250.25641025641,4160.51282051282,4444.10256410256,1663,1692,39.194,39.072639465332,0,0,0,0,2/8/2015 6:19:24 AM,
121,0,441,4809.74358974359,4090.25641025641,4026.15384615385,4366.66666666667,4557.94871794872,4512.30769230769,4317.94871794872,4540.51282051282,7769.74358974359,4056.92307692308,4294.35897435897,4249.23076923077,4150.25641025641,4445.12820512821,1663,1693,39.202,39.072639465332,0,0,0,0,2/8/2015 6:19:24 AM,
122,0,431,4798.97435897436,4089.23076923077,4018.46153846154,4358.46153846154,4551.28205128205,4523.58974358974,4317.94871794872,4537.94871794872,7767.69230769231,4054.8717948718,4276.41025641026,4235.38461538462,4139.48717948718,4464.10256410256,1663,1693,39.209,39.1664695739746,0,0,0,0,2/8/2015 6:19:24 AM,
123,0,452,4779.48717948718,4087.69230769231,4007.69230769231,4345.64102564103,4539.48717948718,4533.33333333333,4317.94871794872,4540.51282051282,7763.58974358975,4065.12820512821,4281.53846153846,4231.28205128205,4143.07692307692,4450.25641025641,1662,1692,39.217,39.1664695739746,0,0,0,0,2/8/2015 6:19:24 AM,
124,0,409,4777.4358974359,4078.97435897436,4003.07692307692,4338.46153846154,4534.8717948718,4517.4358974359,4317.94871794872,4539.48717948718,7762.5641025641,4052.82051282051,4273.84615384615,4235.38461538462,4133.33333333333,4425.12820512821,1662,1692,39.225,39.1664695739746,0,0,0,0,2/8/2015 6:19:24 AM,
125,0,441,4793.33333333333,4078.97435897436,4009.23076923077,4348.20512820513,4544.10256410256,4507.17948717949,4317.94871794872,4537.4358974359,7763.58974358975,4043.58974358974,4257.94871794872,4234.35897435897,4120,4436.41025641026,1663,1689,39.233,39.1664695739746,0,0,0,0,2/8/2015 6:19:24 AM,
126,0,431,4800.51282051282,4094.35897435898,4011.28205128205,4362.05128205128,4548.20512820513,4520,4317.94871794872,4529.23076923077,7762.5641025641,4066.15384615385,4273.84615384615,4231.28205128205,4136.41025641026,4463.58974358974,1661,1690,39.241,39.1664695739746,0,0,0,0,2/8/2015 6:19:24 AM,
127,0,452,4797.4358974359,4109.23076923077,4005.64102564103,4364.61538461538,4552.82051282051,4529.23076923077,4317.94871794872,4517.94871794872,7762.5641025641,4077.4358974359,4298.46153846154,4234.35897435897,4158.46153846154,4447.69230769231,1663,1690,39.248,39.1664695739746,0,0,0,0,2/8/2015 6:19:24 AM,
128,0,409,4804.10256410256,4116.92307692308,4016.92307692308,4364.10256410256,4555.89743589744,4523.07692307692,4317.94871794872,4512.82051282051,7763.07692307692,4058.46153846154,4291.79487179487,4246.66666666667,4143.58974358974,4395.89743589744,1662,1692,39.256,39.1664695739746,0,0,0,0,2/8/2015 6:19:24 AM,
0,0,460,4818.46153846154,4119.48717948718,4034.35897435898,4365.12820512821,4537.4358974359,4520.51282051282,4317.94871794872,4504.10256410256,7763.07692307692,4049.74358974359,4287.17948717949,4254.8717948718,4128.20512820513,4411.28205128205,1662,1692,39.264,39.1664695739746,0,0,0,0,2/8/2015 6:19:24 AM,
1,0,442,4816.92307692308,4124.61538461538,4029.74358974359,4367.17948717949,4534.35897435897,4517.94871794872,4317.94871794872,4492.30769230769,7768.20512820513,4061.53846153846,4296.41025641026,4245.12820512821,4143.07692307692,4485.64102564103,1663,1692,39.272,39.1664695739746,0,0,0,0,2/8/2015 6:19:24 AM,
2,0,457,4805.64102564103,4130.76923076923,4033.84615384615,4376.92307692308,4552.82051282051,4506.15384615385,4317.94871794872,4493.33333333333,7773.33333333333,4061.53846153846,4278.97435897436,4242.5641025641,4136.92307692308,4475.38461538462,1662,1693,39.28,39.1664695739746,0,0,0,0,2/8/2015 6:19:24 AM,
3,0,491,4807.69230769231,4127.17948717949,4049.23076923077,4378.97435897436,4555.38461538462,4507.69230769231,4317.94871794872,4495.38461538462,7767.17948717949,4056.41025641026,4264.10256410256,4252.82051282051,4115.89743589744,4427.69230769231,1662,1692,39.288,39.1664695739746,0,0,0,0,2/8/2015 6:19:24 AM,
4,0,488,4818.97435897436,4118.97435897436,4041.02564102564,4363.07692307692,4567.69230769231,4522.05128205128,4317.94871794872,4493.33333333333,7760,4063.58974358974,4287.69230769231,4248.20512820513,4127.69230769231,4453.84615384615,1661,1692,39.295,39.1664695739746,0,0,0,0,2/8/2015 6:19:24 AM,
5,0,0,4816.41025641026,4119.48717948718,4027.17948717949,4355.38461538462,4587.17948717949,4527.17948717949,4317.94871794872,4493.33333333333,7759.48717948718,4063.58974358974,4302.5641025641,4241.02564102564,4135.38461538462,4451.79487179487,1662,1691,39.303,39.1664695739746,0,0,0,0,2/8/2015 6:19:24 AM,
6,0,480,4807.17948717949,4123.07692307692,4032.82051282051,4365.64102564103,4562.5641025641,4522.05128205128,4317.94871794872,4492.30769230769,7745.12820512821,4050.76923076923,4285.12820512821,4249.74358974359,4117.4358974359,4401.02564102564,1662,1692,39.31,39.1664695739746,0,0,0,0,2/8/2015 6:19:24 AM,
7,0,0,4802.5641025641,4108.71794871795,4040,4364.10256410256,4528.71794871795,4512.30769230769,4317.94871794872,4490.25641025641,7726.15384615385,4042.5641025641,4275.38461538462,4249.74358974359,4110.76923076923,4408.71794871795,1663,1693,39.318,39.1664695739746,0,0,0,0,2/8/2015 6:19:24 AM,
8,0,407,4789.74358974359,4094.8717948718,4032.30769230769,4353.84615384615,4538.46153846154,4502.5641025641,4317.94871794872,4490.76923076923,7727.17948717949,4045.64102564103,4274.35897435897,4237.4358974359,4113.84615384615,4444.61538461538,1663,1694,39.326,39.1664695739746,0,0,0,0,2/8/2015 6:19:24 AM,
9,0,427,4780,4097.94871794872,4022.5641025641,4350.25641025641,4564.10256410256,4503.07692307692,4317.94871794872,4485.64102564103,7730.25641025641,4048.20512820513,4260.51282051282,4238.97435897436,4104.61538461538,4435.38461538462,1663,1694,39.333,39.2915802001953,0,0,0,0,2/8/2015 6:19:24 AM,
10,0,431,4795.38461538462,4102.05128205128,4027.69230769231,4353.33333333333,4563.07692307692,4513.33333333333,4317.94871794872,4472.82051282051,7717.4358974359,4048.20512820513,4260,4253.33333333333,4098.97435897436,4411.28205128205,1665,1695,39.341,39.2915802001953,0,0,0,0,2/8/2015 6:19:24 AM,
11,0,452,4820.51282051282,4110.25641025641,4040,4368.20512820513,4560.51282051282,4505.12820512821,4317.94871794872,4471.28205128205,7707.69230769231,4051.28205128205,4282.05128205128,4252.30769230769,4108.71794871795,4421.02564102564,1664,1695,39.349,39.2915802001953,0,0,0,0,2/8/2015 6:19:24 AM,
12,0,409,4813.84615384615,4117.4358974359,4033.84615384615,4374.35897435897,4570.25641025641,4491.28205128205,4317.94871794872,4477.94871794872,7705.12820512821,4054.8717948718,4293.33333333333,4236.41025641026,4110.76923076923,4436.41025641026,1665,1695,39.357,39.2915802001953,0,0,0,0,2/8/2015 6:19:24 AM,
13,0,441,4786.15384615385,4113.33333333333,4021.02564102564,4364.61538461538,4568.20512820513,4506.66666666667,4317.94871794872,4474.8717948718,7700,4055.38461538462,4281.53846153846,4231.28205128205,4102.05128205128,4426.66666666667,1665,1694,39.365,39.2915802001953,0,0,0,0,2/8/2015 6:19:24 AM,
14,0,431,4782.5641025641,4108.71794871795,4018.46153846154,4364.61538461538,4555.38461538462,4506.66666666667,4317.94871794872,4463.58974358974,7685.64102564103,4054.35897435898,4270.25641025641,4235.38461538462,4097.94871794872,4415.89743589744,1665,1694,39.373,39.2915802001953,0,0,0,0,2/8/2015 6:19:24 AM,
15,0,452,4777.94871794872,4111.28205128205,4013.84615384615,4367.17948717949,4549.74358974359,4473.33333333333,4317.94871794872,4460,7663.58974358975,4051.79487179487,4272.30769230769,4229.74358974359,4099.48717948718,4411.28205128205,1665,1692,39.38,39.2915802001953,0,0,0,0,2/8/2015 6:19:24 AM,
16,0,0,4749.74358974359,4106.66666666667,4015.89743589744,4348.71794871795,4538.97435897436,4482.5641025641,4317.94871794872,4462.05128205128,7659.48717948718,4041.02564102564,4271.79487179487,4226.66666666667,4096.41025641026,4395.38461538462,1663,1693,39.388,39.2915802001953,0,0,0,0,2/8/2015 6:19:24 AM,
17,0,0,4747.17948717949,4102.5641025641,4029.23076923077,4346.15384615385,4517.4358974359,4517.94871794872,4317.94871794872,4463.58974358974,7667.69230769231,4028.71794871795,4271.28205128205,4245.64102564103,4092.82051282051,4371.28205128205,1664,1691,39.396,39.2915802001953,0,0,0,0,2/8/2015 6:19:24 AM,
18,0,0,4780,4112.30769230769,4027.17948717949,4369.74358974359,4511.28205128205,4506.15384615385,4318.46153846154,4462.5641025641,7649.74358974359,4024.10256410256,4278.46153846154,4256.41025641026,4092.30769230769,4376.92307692308,1663,1691,39.404,39.2915802001953,0,0,0,0,2/8/2015 6:19:24 AM,
19,0,0,4788.20512820513,4106.15384615385,4020.51282051282,4365.12820512821,4526.15384615385,4479.48717948718,4318.97435897436,4453.33333333333,7622.05128205128,4032.30769230769,4281.53846153846,4238.46153846154,4090.76923076923,4392.30769230769,1664,1691,39.412,39.2915802001953,0,0,0,0,2/8/2015 6:19:24 AM,
20,0,0,4771.28205128205,4087.17948717949,4023.07692307692,4342.5641025641,4533.84615384615,4483.58974358974,4319.48717948718,4450.25641025641,7614.8717948718,4040.51282051282,4267.17948717949,4227.17948717949,4092.30769230769,4386.66666666667,1663,1691,39.419,39.2915802001953,0,0,0,0,2/8/2015 6:19:24 AM,
21,0,0,4763.07692307692,4085.12820512821,4013.33333333333,4346.15384615385,4532.30769230769,4484.10256410256,4319.48717948718,4455.89743589744,7606.15384615385,4035.89743589744,4250.76923076923,4231.28205128205,4091.28205128205,4377.94871794872,1663,1692,39.427,39.2915802001953,0,0,0,0,2/8/2015 6:19:24 AM,
22,0,0,4750.76923076923,4092.82051282051,4008.20512820513,4355.89743589744,4532.82051282051,4457.4358974359,4318.46153846154,4449.74358974359,7585.64102564103,4036.41025641026,4257.94871794872,4234.8717948718,4085.64102564103,4378.97435897436,1664,1692,39.435,39.2915802001953,0,0,0,0,2/8/2015 6:19:24 AM,
23,0,0,4749.74358974359,4092.30769230769,4018.46153846154,4348.20512820513,4542.05128205128,4446.66666666667,4319.48717948718,4434.35897435897,7570.76923076923,4044.61538461539,4275.38461538462,4234.8717948718,4085.12820512821,4375.38461538462,1664,1693,39.443,39.2915802001953,0,0,0,0,2/8/2015 6:19:24 AM,
24,0,0,4771.79487179487,4092.30769230769,4014.8717948718,4349.74358974359,4549.23076923077,4461.02564102564,4318.97435897436,4423.07692307692,7560.51282051282,4040.51282051282,4282.5641025641,4228.20512820513,4087.17948717949,4386.66666666667,1664,1691,39.451,39.2915802001953,0,0,0,0,2/8/2015 6:19:24 AM,
25,0,0,4762.05128205128,4091.28205128205,4004.10256410256,4357.94871794872,4531.79487179487,4454.35897435897,4313.84615384615,4406.66666666667,7535.38461538462,4032.82051282051,4273.33333333333,4215.89743589744,4081.02564102564,4415.38461538462,1664,1692,39.461,39.4166870117188,0,0,0,0,2/8/2015 6:19:24 AM,
26,0,0,4742.05128205128,4090.25641025641,4002.05128205128,4351.28205128205,4517.4358974359,4445.64102564103,4308.71794871795,4394.35897435897,7503.07692307692,4039.48717948718,4261.53846153846,4211.79487179487,4076.41025641026,4408.71794871795,1665,1690,39.468,39.4166870117188,0,0,0,0,2/8/2015 6:19:24 AM,
27,0,0,4762.5641025641,4106.15384615385,4007.17948717949,4350.76923076923,4542.5641025641,4477.94871794872,4309.23076923077,4405.12820512821,7497.94871794872,4053.33333333333,4261.53846153846,4221.02564102564,4086.15384615385,4388.20512820513,1664,1690,39.476,39.4166870117188,0,0,0,0,2/8/2015 6:19:24 AM,
28,0,0,4764.10256410256,4108.20512820513,4024.10256410256,4364.10256410256,4566.66666666667,4504.10256410256,4314.8717948718,4415.38461538462,7509.23076923077,4061.53846153846,4268.20512820513,4222.5641025641,4095.89743589744,4402.05128205128,1666,1688,39.483,39.4166870117188,0,0,0,0,2/8/2015 6:19:24 AM,
29,0,0,4735.38461538462,4090.76923076923,4022.05128205128,4365.64102564103,4560.51282051282,4489.74358974359,4319.48717948718,4412.30769230769,7493.84615384616,4061.53846153846,4276.92307692308,4209.23076923077,4090.76923076923,4405.12820512821,1664,1689,39.49,39.4166870117188,0,0,0,0,2/8/2015 6:19:24 AM,
30,0,0,4742.05128205128,4102.05128205128,3990.76923076923,4357.4358974359,4556.92307692308,4479.48717948718,4316.41025641026,4408.20512820513,7454.35897435898,4053.33333333333,4280.51282051282,4200,4085.64102564103,4402.5641025641,1665,1689,39.498,39.4166870117188,0,0,0,0,2/8/2015 6:19:24 AM,
31,0,0,4753.33333333333,4113.33333333333,3991.28205128205,4360,4541.53846153846,4469.74358974359,4312.30769230769,4403.07692307692,7431.28205128205,4042.05128205128,4276.92307692308,4211.28205128205,4087.17948717949,4389.74358974359,1665,1688,39.506,39.4166870117188,0,0,0,0,2/8/2015 6:19:24 AM,
32,0,0,4729.23076923077,4087.69230769231,4017.94871794872,4354.35897435897,4500,4458.97435897436,4316.41025641026,4397.94871794872,7416.41025641026,4033.84615384615,4263.58974358974,4235.89743589744,4072.82051282051,4325.64102564103,1664,1690,39.513,39.4166870117188,0,0,0,0,2/8/2015 6:19:24 AM,
33,0,0,4717.94871794872,4076.41025641026,4012.30769230769,4341.53846153846,4504.10256410256,4476.92307692308,4320.51282051282,4398.97435897436,7390.25641025641,4036.41025641026,4255.89743589744,4231.79487179487,4062.5641025641,4313.33333333333,1665,1689,39.523,39.4166870117188,0,0,0,0,2/8/2015 6:19:24 AM,
34,0,0,4717.94871794872,4095.38461538462,3995.38461538462,4349.23076923077,4543.07692307692,4492.30769230769,4318.97435897436,4397.94871794872,7362.5641025641,4049.23076923077,4263.07692307692,4206.66666666667,4079.48717948718,4386.15384615385,1665,1691,39.531,39.4166870117188,0,0,0,0,2/8/2015 6:19:24 AM,
35,0,0,4700,4095.38461538462,3999.48717948718,4361.02564102564,4549.74358974359,4477.94871794872,4318.97435897436,4390.25641025641,7334.35897435898,4049.23076923077,4267.17948717949,4204.61538461538,4081.02564102564,4392.30769230769,1664,1691,39.539,39.4166870117188,0,0,0,0,2/8/2015 6:19:24 AM,
36,0,0,4700.51282051282,4081.53846153846,4005.64102564103,4357.94871794872,4535.89743589744,4468.71794871795,4318.97435897436,4390.25641025641,7312.30769230769,4036.41025641026,4267.17948717949,4223.58974358974,4065.64102564103,4338.97435897436,1664,1692,39.546,39.4166870117188,0,0,0,0,2/8/2015 6:19:24 AM,
37,0,0,4722.05128205128,4084.10256410256,4001.53846153846,4346.66666666667,4524.61538461538,4476.41025641026,4315.38461538462,4397.4358974359,7298.46153846154,4030.76923076923,4267.17948717949,4220,4069.23076923077,4363.07692307692,1665,1691,39.553,39.4166870117188,0,0,0,0,2/8/2015 6:19:24 AM,
38,0,0,4732.30769230769,4092.30769230769,3994.35897435898,4342.5641025641,4526.15384615385,4484.10256410256,4315.89743589744,4397.94871794872,7272.30769230769,4037.4358974359,4264.10256410256,4197.4358974359,4077.94871794872,4405.12820512821,1664,1693,39.561,39.4166870117188,0,0,0,0,2/8/2015 6:19:24 AM,
39,0,0,4725.64102564103,4092.82051282051,3997.94871794872,4347.17948717949,4541.02564102564,4487.69230769231,4318.97435897436,4393.33333333333,7247.69230769231,4042.05128205128,4268.20512820513,4205.12820512821,4072.82051282051,4360,1664,1691,39.569,39.4166870117188,0,0,0,0,2/8/2015 6:19:24 AM,
40,0,0,4717.4358974359,4089.23076923077,4007.69230769231,4354.8717948718,4538.46153846154,4481.53846153846,4317.94871794872,4385.64102564103,7240,4047.17948717949,4277.4358974359,4221.02564102564,4073.84615384615,4336.41025641026,1664,1691,39.577,39.4166870117188,0,0,0,0,2/8/2015 6:19:24 AM,
41,0,0,4721.02564102564,4094.35897435898,4004.61538461539,4363.07692307692,4523.07692307692,4469.23076923077,4317.94871794872,4374.8717948718,7210.76923076923,4055.89743589744,4274.35897435897,4210.76923076923,4079.48717948718,4396.92307692308,1664,1692,39.585,39.5417938232422,0,0,0,0,2/8/2015 6:19:24 AM,
42,0,0,4713.84615384615,4091.28205128205,3996.92307692308,4354.8717948718,4521.53846153846,4471.79487179487,4319.48717948718,4368.71794871795,7162.5641025641,4054.8717948718,4262.5641025641,4203.07692307692,4071.79487179487,4403.58974358974,1664,1690,39.593,39.5417938232422,0,0,0,0,2/8/2015 6:19:24 AM,
43,0,0,4699.48717948718,4075.89743589744,4000.51282051282,4337.4358974359,4539.48717948718,4480,4318.46153846154,4370.25641025641,7154.8717948718,4053.84615384615,4258.46153846154,4216.41025641026,4063.58974358974,4341.02564102564,1664,1692,39.6,39.5417938232422,0,0,0,0,2/8/2015 6:19:24 AM,
44,0,0,4713.33333333333,4081.53846153846,4006.66666666667,4345.12820512821,4563.58974358974,4477.4358974359,4317.4358974359,4373.33333333333,7160,4060,4272.30769230769,4222.5641025641,4068.71794871795,4350.76923076923,1665,1692,39.607,39.5417938232422,0,0,0,0,2/8/2015 6:19:24 AM,
45,0,0,4740,4103.07692307692,4006.15384615385,4374.35897435897,4565.64102564103,4475.89743589744,4318.46153846154,4378.97435897436,7140,4057.94871794872,4282.5641025641,4212.82051282051,4083.58974358974,4403.07692307692,1663,1693,39.615,39.573070526123,0,0,0,0,2/8/2015 6:19:24 AM,
46,0,0,4742.5641025641,4109.74358974359,4012.30769230769,4382.05128205128,4540,4477.4358974359,4317.94871794872,4382.05128205128,7118.97435897436,4051.79487179487,4272.82051282051,4216.92307692308,4090.76923076923,4403.58974358974,1664,1693,39.623,39.573070526123,0,0,0,0,2/8/2015 6:19:24 AM,
47,0,0,4730.76923076923,4101.53846153846,4021.02564102564,4359.48717948718,4531.28205128205,4477.4358974359,4317.94871794872,4379.48717948718,7092.82051282051,4046.66666666667,4268.20512820513,4227.17948717949,4074.8717948718,4380,1664,1694,39.631,39.573070526123,0,0,0,0,2/8/2015 6:19:24 AM,
48,0,0,4721.53846153846,4090.76923076923,4013.33333333333,4344.61538461538,4554.35897435897,4476.41025641026,4317.94871794872,4379.48717948718,7061.53846153846,4039.48717948718,4280.51282051282,4233.33333333333,4060.51282051282,4366.66666666667,1664,1693,39.638,39.573070526123,0,0,0,0,2/8/2015 6:19:24 AM,
49,0,0,4716.92307692308,4087.69230769231,4005.12820512821,4348.20512820513,4561.02564102564,4474.8717948718,4317.94871794872,4385.12820512821,7044.10256410257,4048.71794871795,4284.61538461538,4231.79487179487,4069.74358974359,4375.89743589744,1663,1695,39.646,39.573070526123,0,0,0,0,2/8/2015 6:19:24 AM,
50,0,0,4717.4358974359,4099.48717948718,4015.38461538462,4359.48717948718,4537.94871794872,4474.8717948718,4317.94871794872,4387.17948717949,7032.30769230769,4061.53846153846,4278.46153846154,4221.02564102564,4080.51282051282,4391.28205128205,1664,1694,39.654,39.573070526123,0,0,0,0,2/8/2015 6:19:24 AM,
51,0,0,4713.84615384615,4107.69230769231,4016.92307692308,4365.12820512821,4537.94871794872,4477.94871794872,4317.94871794872,4382.5641025641,7013.84615384616,4052.30769230769,4272.82051282051,4218.46153846154,4076.92307692308,4375.89743589744,1664,1693,39.662,39.573070526123,0,0,0,0,2/8/2015 6:19:24 AM,
52,0,0,4712.82051282051,4104.10256410256,4004.10256410256,4363.07692307692,4560,4479.48717948718,4317.94871794872,4382.05128205128,6995.89743589744,4046.66666666667,4275.89743589744,4225.12820512821,4072.82051282051,4354.35897435897,1663,1694,39.67,39.573070526123,0,0,0,0,2/8/2015 6:19:24 AM,
53,0,0,4723.07692307692,4105.64102564103,4009.74358974359,4360,4548.20512820513,4477.4358974359,4317.94871794872,4392.82051282051,6986.15384615385,4051.79487179487,4288.71794871795,4232.82051282051,4075.38461538462,4366.15384615385,1665,1693,39.678,39.573070526123,0,0,0,0,2/8/2015 6:19:24 AM,
54,0,0,4717.94871794872,4105.64102564103,4024.61538461539,4355.89743589744,4526.66666666667,4473.33333333333,4317.94871794872,4397.4358974359,6976.41025641026,4049.74358974359,4289.23076923077,4233.84615384615,4081.02564102564,4380,1663,1694,39.685,39.573070526123,0,0,0,0,2/8/2015 6:19:24 AM,
55,0,0,4713.84615384615,4101.02564102564,4013.33333333333,4356.92307692308,4546.15384615385,4461.53846153846,4317.94871794872,4385.64102564103,6954.35897435898,4048.71794871795,4275.89743589744,4229.23076923077,4081.02564102564,4381.02564102564,1664,1693,39.693,39.573070526123,0,0,0,0,2/8/2015 6:19:24 AM,
56,0,0,4715.89743589744,4098.46153846154,3996.41025641026,4360.51282051282,4548.20512820513,4454.35897435897,4317.94871794872,4377.4358974359,6932.82051282051,4052.82051282051,4274.35897435897,4225.12820512821,4069.74358974359,4371.79487179487,1663,1694,39.702,39.573070526123,0,0,0,0,2/8/2015 6:19:24 AM,
57,0,0,4694.8717948718,4093.33333333333,4008.20512820513,4353.33333333333,4522.05128205128,4466.15384615385,4317.94871794872,4383.07692307692,6919.48717948718,4053.33333333333,4281.02564102564,4231.79487179487,4065.12820512821,4355.38461538462,1664,1692,39.71,39.6669006347656,0,0,0,0,2/8/2015 6:19:24 AM,
58,0,0,4695.38461538462,4089.74358974359,4014.8717948718,4344.61538461538,4539.48717948718,4466.66666666667,4317.94871794872,4380,6892.82051282051,4053.33333333333,4277.94871794872,4233.84615384615,4068.20512820513,4366.15384615385,1664,1691,39.718,39.6669006347656,0,0,0,0,2/8/2015 6:19:24 AM,
59,0,0,4728.71794871795,4089.74358974359,3993.84615384615,4348.71794871795,4561.53846153846,4452.30769230769,4317.94871794872,4373.84615384615,6868.20512820513,4048.71794871795,4268.71794871795,4221.53846153846,4062.5641025641,4379.48717948718,1664,1691,39.725,39.6669006347656,0,0,0,0,2/8/2015 6:19:24 AM,
60,0,0,4729.74358974359,4093.33333333333,3989.74358974359,4359.48717948718,4537.4358974359,4454.35897435897,4317.94871794872,4384.10256410256,6853.33333333333,4050.25641025641,4263.58974358974,4217.4358974359,4061.02564102564,4376.92307692308,1663,1690,39.733,39.6669006347656,0,0,0,0,2/8/2015 6:19:24 AM,
61,0,0,4708.71794871795,4105.12820512821,4004.10256410256,4362.05128205128,4534.35897435897,4464.10256410256,4317.94871794872,4397.94871794872,6829.23076923077,4066.15384615385,4266.15384615385,4222.05128205128,4062.05128205128,4380.51282051282,1663,1690,39.741,39.6669006347656,0,0,0,0,2/8/2015 6:19:24 AM,
62,0,0,4703.07692307692,4104.61538461538,4006.66666666667,4354.8717948718,4554.8717948718,4464.10256410256,4317.94871794872,4405.64102564103,6814.8717948718,4067.69230769231,4275.38461538462,4230.25641025641,4054.8717948718,4374.8717948718,1662,1691,39.749,39.6669006347656,0,0,0,0,2/8/2015 6:19:24 AM,
63,0,0,4696.41025641026,4086.15384615385,4002.05128205128,4353.33333333333,4548.71794871795,4456.92307692308,4317.94871794872,4410.25641025641,6796.92307692308,4050.76923076923,4281.53846153846,4226.15384615385,4054.35897435898,4376.41025641026,1663,1691,39.757,39.6669006347656,0,0,0,0,2/8/2015 6:19:24 AM,
64,0,460,4695.38461538462,4078.46153846154,3996.92307692308,4349.74358974359,4530.76923076923,4447.69230769231,4317.94871794872,4408.20512820513,6760.51282051282,4049.23076923077,4273.84615384615,4205.12820512821,4057.4358974359,4382.05128205128,1662,1692,39.765,39.6669006347656,0,0,0,0,2/8/2015 6:19:24 AM,
65,0,442,4709.74358974359,4083.58974358974,3989.23076923077,4341.02564102564,4520.51282051282,4437.94871794872,4317.94871794872,4403.07692307692,6747.17948717949,4059.48717948718,4259.48717948718,4200.51282051282,4050.25641025641,4357.4358974359,1661,1690,39.772,39.6669006347656,0,0,0,0,2/8/2015 6:19:24 AM,
66,0,457,4711.28205128205,4084.61538461539,3990.76923076923,4346.15384615385,4524.61538461538,4445.64102564103,4317.94871794872,4404.10256410256,6760.51282051282,4060.51282051282,4258.97435897436,4218.46153846154,4048.20512820513,4350.25641025641,1661,1690,39.78,39.6669006347656,0,0,0,0,2/8/2015 6:19:24 AM,
67,0,491,4706.15384615385,4087.69230769231,3990.25641025641,4356.92307692308,4544.10256410256,4471.79487179487,4317.94871794872,4412.82051282051,6762.05128205128,4062.5641025641,4266.15384615385,4219.48717948718,4050.76923076923,4381.53846153846,1662,1689,39.788,39.6669006347656,0,0,0,0,2/8/2015 6:19:24 AM,
68,0,488,4708.71794871795,4091.79487179487,3984.10256410256,4352.82051282051,4544.10256410256,4481.02564102564,4318.46153846154,4426.15384615385,6756.92307692308,4061.02564102564,4266.66666666667,4206.66666666667,4050.76923076923,4387.17948717949,1661,1690,39.796,39.6669006347656,0,0,0,0,2/8/2015 6:19:24 AM,
69,0,288,4704.61538461539,4088.20512820513,3997.4358974359,4347.69230769231,4532.82051282051,4457.4358974359,4318.46153846154,4433.33333333333,6745.64102564103,4050.25641025641,4266.15384615385,4209.23076923077,4055.38461538462,4374.35897435897,1661,1690,39.804,39.6669006347656,0,0,0,0,2/8/2015 6:19:24 AM,
70,0,482,4689.74358974359,4081.53846153846,4003.58974358974,4352.30769230769,4534.35897435897,4436.41025641026,4317.94871794872,4420.51282051282,6714.35897435898,4052.30769230769,4264.10256410256,4212.82051282051,4052.30769230769,4380.51282051282,1662,1690,39.811,39.6669006347656,0,0,0,0,2/8/2015 6:19:24 AM,
71,0,0,4685.64102564103,4073.84615384615,3990.76923076923,4347.17948717949,4522.5641025641,4449.74358974359,4317.94871794872,4411.28205128205,6688.71794871795,4059.48717948718,4263.07692307692,4216.41025641026,4046.15384615385,4370.76923076923,1662,1690,39.819,39.6669006347656,0,0,0,0,2/8/2015 6:19:24 AM,
72,0,407,4708.71794871795,4074.8717948718,3990.25641025641,4338.97435897436,4522.05128205128,4460.51282051282,4318.46153846154,4416.41025641026,6681.53846153846,4058.97435897436,4270.25641025641,4218.97435897436,4054.8717948718,4358.97435897436,1663,1690,39.827,39.6669006347656,0,0,0,0,2/8/2015 6:19:24 AM,
73,0,427,4713.84615384615,4084.61538461539,3990.25641025641,4341.53846153846,4552.82051282051,4440.51282051282,4315.38461538462,4414.35897435897,6663.58974358974,4068.71794871795,4258.46153846154,4206.15384615385,4055.38461538462,4370.76923076923,1662,1692,39.835,39.7920074462891,0,0,0,0,2/8/2015 6:19:24 AM,
74,0,431,4694.35897435897,4088.20512820513,3975.38461538462,4346.66666666667,4553.84615384615,4434.35897435897,4310.25641025641,4407.69230769231,6635.38461538462,4067.17948717949,4241.02564102564,4194.35897435897,4042.5641025641,4382.05128205128,1664,1691,39.843,39.7920074462891,0,0,0,0,2/8/2015 6:19:24 AM,
75,0,452,4697.4358974359,4089.23076923077,3975.38461538462,4351.79487179487,4532.82051282051,4457.4358974359,4312.30769230769,4412.82051282051,6631.28205128205,4043.58974358974,4258.97435897436,4196.92307692308,4045.64102564103,4396.92307692308,1663,1692,39.851,39.7920074462891,0,0,0,0,2/8/2015 6:19:24 AM,
76,0,409,4696.92307692308,4089.23076923077,3998.97435897436,4349.74358974359,4524.61538461538,4464.10256410256,4317.94871794872,4419.48717948718,6632.82051282051,4040.51282051282,4279.48717948718,4208.71794871795,4060,4380.51282051282,1664,1692,39.858,39.7920074462891,0,0,0,0,2/8/2015 6:19:24 AM,
77,0,441,4681.02564102564,4077.4358974359,4009.74358974359,4337.94871794872,4518.46153846154,4442.05128205128,4318.46153846154,4413.84615384615,6597.94871794872,4055.38461538462,4267.69230769231,4217.94871794872,4061.53846153846,4333.84615384615,1663,1691,39.866,39.7920074462891,0,0,0,0,2/8/2015 6:19:25 AM,
78,0,431,4702.05128205128,4072.30769230769,3991.28205128205,4341.53846153846,4534.35897435897,4437.4358974359,4317.4358974359,4407.69230769231,6564.61538461539,4058.97435897436,4259.48717948718,4216.41025641026,4057.94871794872,4351.28205128205,1663,1692,39.874,39.7920074462891,0,0,0,0,2/8/2015 6:19:25 AM,
79,0,452,4728.71794871795,4089.23076923077,3979.48717948718,4362.5641025641,4560,4452.82051282051,4319.48717948718,4410.76923076923,6581.02564102564,4067.17948717949,4264.61538461538,4212.82051282051,4060,4403.58974358974,1663,1692,39.882,39.7920074462891,0,0,0,0,2/8/2015 6:19:25 AM,
80,0,409,4721.53846153846,4098.97435897436,4001.02564102564,4367.69230769231,4553.84615384615,4464.10256410256,4319.48717948718,4413.84615384615,6596.41025641026,4077.94871794872,4263.07692307692,4215.89743589744,4060,4402.5641025641,1664,1692,39.89,39.7920074462891,0,0,0,0,2/8/2015 6:19:25 AM,
81,0,441,4719.48717948718,4088.20512820513,4017.4358974359,4352.82051282051,4553.33333333333,4471.28205128205,4317.94871794872,4412.82051282051,6572.82051282051,4074.35897435898,4269.74358974359,4219.48717948718,4061.02564102564,4376.41025641026,1664,1692,39.897,39.7920074462891,0,0,0,0,2/8/2015 6:19:25 AM,
82,0,431,4718.97435897436,4086.15384615385,3994.8717948718,4347.17948717949,4573.33333333333,4469.74358974359,4317.94871794872,4410.76923076923,6546.15384615385,4064.10256410256,4279.48717948718,4216.92307692308,4057.94871794872,4364.61538461538,1664,1694,39.904,39.7920074462891,0,0,0,0,2/8/2015 6:19:25 AM,
83,0,452,4702.05128205128,4094.35897435898,3977.4358974359,4353.33333333333,4563.58974358974,4458.46153846154,4318.46153846154,4410.76923076923,6532.30769230769,4060.51282051282,4266.66666666667,4215.89743589744,4049.74358974359,4371.28205128205,1665,1694,39.912,39.7920074462891,0,0,0,0,2/8/2015 6:19:25 AM,
84,0,409,4704.61538461539,4092.82051282051,3993.84615384615,4353.33333333333,4545.64102564103,4457.4358974359,4317.94871794872,4415.89743589744,6521.02564102564,4068.20512820513,4258.46153846154,4216.92307692308,4054.35897435898,4393.33333333333,1663,1695,39.92,39.7920074462891,0,0,0,0,2/8/2015 6:19:25 AM,
85,0,441,4716.41025641026,4085.12820512821,4007.69230769231,4348.71794871795,4553.84615384615,4469.74358974359,4317.94871794872,4430.76923076923,6513.33333333333,4073.84615384615,4272.30769230769,4217.94871794872,4061.02564102564,4395.89743589744,1664,1693,39.928,39.7920074462891,0,0,0,0,2/8/2015 6:19:25 AM,
86,0,431,4702.5641025641,4079.48717948718,4000.51282051282,4348.71794871795,4562.05128205128,4469.74358974359,4317.94871794872,4441.53846153846,6507.69230769231,4067.69230769231,4275.38461538462,4215.89743589744,4051.28205128205,4372.82051282051,1664,1693,39.936,39.7920074462891,0,0,0,0,2/8/2015 6:19:25 AM,
87,0,452,4688.71794871795,4075.38461538462,3982.05128205128,4351.79487179487,4561.02564102564,4453.84615384615,4317.94871794872,4433.33333333333,6491.28205128205,4063.58974358974,4257.94871794872,4206.15384615385,4046.15384615385,4364.10256410256,1664,1693,39.943,39.7920074462891,0,0,0,0,2/8/2015 6:19:25 AM,
88,0,409,4691.28205128205,4077.94871794872,3970.76923076923,4343.58974358974,4544.61538461538,4440.51282051282,4317.94871794872,4423.58974358974,6469.74358974359,4069.74358974359,4253.84615384615,4200,4052.30769230769,4368.71794871795,1664,1694,39.951,39.7920074462891,0,0,0,0,2/8/2015 6:19:25 AM,
89,0,441,4692.82051282051,4074.35897435898,3980,4327.69230769231,4521.53846153846,4440,4317.94871794872,4428.71794871795,6456.92307692308,4062.5641025641,4263.58974358974,4202.5641025641,4046.15384615385,4370.76923076923,1664,1695,39.959,39.9171180725098,0,0,0,0,2/8/2015 6:19:25 AM,
90,0,431,4691.79487179487,4064.61538461539,3989.23076923077,4328.71794871795,4523.58974358974,4451.79487179487,4317.94871794872,4433.33333333333,6442.5641025641,4047.69230769231,4263.07692307692,4204.61538461538,4042.05128205128,4376.41025641026,1664,1693,39.968,39.9171180725098,0,0,0,0,2/8/2015 6:19:25 AM,
91,0,452,4699.48717948718,4076.41025641026,3987.69230769231,4347.17948717949,4537.94871794872,4457.4358974359,4317.94871794872,4422.5641025641,6426.66666666667,4060,4258.97435897436,4209.23076923077,4050.25641025641,4383.58974358974,1664,1694,39.979,39.9171180725098,0,0,0,0,2/8/2015 6:19:25 AM,
92,0,409,4704.61538461539,4092.82051282051,3993.84615384615,4354.35897435897,4542.5641025641,4453.84615384615,4317.94871794872,4410.25641025641,6411.28205128205,4078.97435897436,4262.5641025641,4220,4050.25641025641,4379.48717948718,1664,1694,39.984,39.9171180725098,0,0,0,0,2/8/2015 6:19:25 AM,
93,0,441,4702.5641025641,4083.58974358974,4005.12820512821,4340,4551.79487179487,4453.84615384615,4318.46153846154,4414.8717948718,6396.41025641026,4072.30769230769,4268.71794871795,4223.07692307692,4044.61538461539,4364.10256410256,1664,1695,39.992,39.9171180725098,0,0,0,0,2/8/2015 6:19:25 AM,
94,0,431,4701.53846153846,4071.79487179487,4007.17948717949,4334.8717948718,4555.38461538462,4459.48717948718,4318.46153846154,4425.64102564103,6381.53846153846,4066.66666666667,4267.69230769231,4216.41025641026,4043.07692307692,4364.61538461538,1664,1693,39.998,39.9171180725098,0,0,0,0,2/8/2015 6:19:25 AM,
95,0,452,4708.71794871795,4075.38461538462,4006.15384615385,4345.64102564103,4545.64102564103,4458.97435897436,4317.4358974359,4422.05128205128,6364.10256410257,4079.48717948718,4256.92307692308,4220.51282051282,4048.71794871795,4402.05128205128,1663,1694,40.006,39.9171180725098,0,0,0,0,2/8/2015 6:19:25 AM,
96,0,409,4716.41025641026,4083.58974358974,4003.07692307692,4355.38461538462,4550.25641025641,4449.74358974359,4319.48717948718,4413.33333333333,6358.46153846154,4083.07692307692,4264.10256410256,4222.05128205128,4063.07692307692,4428.71794871795,1665,1692,40.014,39.9171180725098,0,0,0,0,2/8/2015 6:19:25 AM,
97,0,441,4710.76923076923,4089.23076923077,4003.58974358974,4350.76923076923,4555.89743589744,4432.82051282051,4317.4358974359,4414.35897435897,6354.35897435898,4074.8717948718,4284.61538461538,4215.89743589744,4063.58974358974,4395.38461538462,1663,1692,40.022,39.9171180725098,0,0,0,0,2/8/2015 6:19:25 AM,
98,0,431,4700.51282051282,4081.53846153846,4006.66666666667,4336.92307692308,4541.53846153846,4428.20512820513,4311.79487179487,4413.84615384615,6324.10256410257,4072.30769230769,4273.33333333333,4224.10256410256,4045.12820512821,4363.58974358974,1664,1693,40.03,39.9171180725098,0,0,0,0,2/8/2015 6:19:25 AM,
99,0,452,4703.07692307692,4075.89743589744,3993.84615384615,4335.38461538462,4555.89743589744,4460,4310.76923076923,4412.82051282051,6301.02564102564,4070.25641025641,4258.46153846154,4227.69230769231,4048.71794871795,4391.28205128205,1664,1693,40.039,39.9171180725098,0,0,0,0,2/8/2015 6:19:25 AM,
100,0,409,4713.33333333333,4090.25641025641,3988.20512820513,4342.5641025641,4579.48717948718,4478.97435897436,4313.33333333333,4416.41025641026,6312.30769230769,4073.33333333333,4280,4216.41025641026,4065.12820512821,4416.41025641026,1665,1693,40.046,39.9171180725098,0,0,0,0,2/8/2015 6:19:25 AM,
101,0,441,4699.48717948718,4088.71794871795,4003.58974358974,4341.53846153846,4554.35897435897,4462.5641025641,4314.35897435897,4412.82051282051,6307.69230769231,4079.48717948718,4288.20512820513,4213.33333333333,4055.38461538462,4391.28205128205,1664,1693,40.054,39.9171180725098,0,0,0,0,2/8/2015 6:19:25 AM,
102,0,431,4680,4073.33333333333,4007.69230769231,4343.58974358974,4528.71794871795,4465.64102564103,4313.33333333333,4405.12820512821,6282.05128205128,4073.84615384615,4264.10256410256,4219.48717948718,4043.07692307692,4362.05128205128,1664,1695,40.062,39.9171180725098,0,0,0,0,2/8/2015 6:19:25 AM,
103,0,452,4699.48717948718,4085.64102564103,3998.46153846154,4352.82051282051,4553.33333333333,4480.51282051282,4313.33333333333,4400,6266.15384615385,4065.64102564103,4261.02564102564,4226.66666666667,4044.10256410256,4360,1665,1695,40.071,39.9171180725098,0,0,0,0,2/8/2015 6:19:25 AM,
104,0,409,4723.58974358974,4094.8717948718,4000,4342.05128205128,4584.61538461538,4462.05128205128,4312.82051282051,4390.76923076923,6240.51282051282,4069.23076923077,4268.20512820513,4232.82051282051,4035.38461538462,4362.5641025641,1664,1696,40.078,39.9171180725098,0,0,0,0,2/8/2015 6:19:25 AM,
105,0,441,4708.71794871795,4081.53846153846,4009.23076923077,4330.76923076923,4583.07692307692,4450.76923076923,4313.84615384615,4387.69230769231,6223.58974358974,4076.41025641026,4258.97435897436,4232.30769230769,4035.89743589744,4386.66666666667,1665,1695,40.085,40.0422248840332,0,0,0,0,2/8/2015 6:19:25 AM,
106,0,431,4695.89743589744,4082.5641025641,4013.33333333333,4341.53846153846,4574.35897435897,4477.4358974359,4314.35897435897,4392.82051282051,6232.30769230769,4078.97435897436,4272.30769230769,4226.15384615385,4057.94871794872,4424.10256410256,1664,1696,40.094,40.0422248840332,0,0,0,0,2/8/2015 6:19:25 AM,
107,0,452,4709.23076923077,4096.41025641026,4006.66666666667,4345.12820512821,4571.28205128205,4481.02564102564,4313.33333333333,4396.92307692308,6230.25641025641,4076.92307692308,4288.20512820513,4224.10256410256,4060.51282051282,4404.61538461538,1665,1693,40.102,40.0422248840332,0,0,0,0,2/8/2015 6:19:25 AM,
108,0,409,4701.02564102564,4090.25641025641,4000,4340,4558.97435897436,4459.48717948718,4313.84615384615,4402.5641025641,6226.15384615385,4072.30769230769,4271.79487179487,4217.94871794872,4046.66666666667,4368.71794871795,1664,1694,40.11,40.0422248840332,0,0,0,0,2/8/2015 6:19:25 AM,
109,0,441,4681.02564102564,4077.94871794872,4003.58974358974,4336.41025641026,4540.51282051282,4464.61538461538,4313.84615384615,4413.84615384615,6235.89743589744,4068.20512820513,4264.10256410256,4222.5641025641,4049.74358974359,4383.58974358974,1665,1694,40.115,40.0735015869141,0,0,0,0,2/8/2015 6:19:25 AM,
110,0,431,4685.64102564103,4070.76923076923,4002.05128205128,4327.17948717949,4533.33333333333,4481.53846153846,4313.84615384615,4415.89743589744,6223.07692307692,4064.61538461539,4276.41025641026,4230.76923076923,4055.89743589744,4405.64102564103,1665,1693,40.123,40.0735015869141,0,0,0,0,2/8/2015 6:19:25 AM,
111,0,452,4696.92307692308,4064.10256410256,3996.41025641026,4320,4541.02564102564,4468.20512820513,4313.84615384615,4407.17948717949,6194.8717948718,4063.07692307692,4267.69230769231,4228.20512820513,4039.48717948718,4367.69230769231,1664,1694,40.131,40.0735015869141,0,0,0,0,2/8/2015 6:19:25 AM,
112,0,409,4698.97435897436,4068.20512820513,4002.5641025641,4328.71794871795,4542.05128205128,4444.61538461538,4313.84615384615,4407.69230769231,6187.17948717949,4064.61538461539,4252.82051282051,4228.20512820513,4023.07692307692,4320.51282051282,1664,1693,40.139,40.0735015869141,0,0,0,0,2/8/2015 6:19:25 AM,
113,0,441,4705.12820512821,4077.94871794872,4003.07692307692,4335.89743589744,4532.82051282051,4445.12820512821,4313.84615384615,4412.82051282051,6184.61538461539,4066.66666666667,4263.58974358974,4226.66666666667,4026.66666666667,4355.38461538462,1665,1693,40.149,40.0735015869141,0,0,0,0,2/8/2015 6:19:25 AM,
114,0,431,4710.76923076923,4080.51282051282,3990.76923076923,4331.79487179487,4530.76923076923,4457.94871794872,4313.84615384615,4411.28205128205,6163.07692307692,4069.23076923077,4266.66666666667,4214.8717948718,4034.35897435898,4411.28205128205,1664,1693,40.156,40.0735015869141,0,0,0,0,2/8/2015 6:19:25 AM,
115,0,452,4709.74358974359,4085.64102564103,3991.28205128205,4334.35897435897,4555.89743589744,4476.92307692308,4313.84615384615,4411.79487179487,6148.20512820513,4067.17948717949,4264.10256410256,4212.30769230769,4042.05128205128,4409.23076923077,1664,1695,40.164,40.0735015869141,0,0,0,0,2/8/2015 6:19:25 AM,
116,0,409,4707.69230769231,4087.17948717949,4007.69230769231,4340.51282051282,4567.17948717949,4492.30769230769,4313.84615384615,4410.76923076923,6147.69230769231,4056.92307692308,4277.94871794872,4224.10256410256,4045.64102564103,4373.84615384615,1665,1695,40.171,40.0735015869141,0,0,0,0,2/8/2015 6:19:25 AM,
117,0,441,4708.71794871795,4083.07692307692,4016.41025641026,4341.53846153846,4540,4484.61538461538,4313.84615384615,4401.02564102564,6141.53846153846,4063.07692307692,4276.41025641026,4233.84615384615,4034.8717948718,4353.84615384615,1664,1696,40.18,40.0735015869141,0,0,0,0,2/8/2015 6:19:25 AM,
118,0,431,4712.82051282051,4089.74358974359,4011.28205128205,4344.10256410256,4543.07692307692,4471.28205128205,4313.84615384615,4394.35897435897,6135.38461538462,4091.79487179487,4263.58974358974,4234.8717948718,4032.82051282051,4360,1664,1695,40.187,40.0735015869141,0,0,0,0,2/8/2015 6:19:25 AM,
119,0,452,4720,4100.51282051282,4003.58974358974,4342.5641025641,4576.92307692308,4470.25641025641,4313.84615384615,4393.84615384615,6125.12820512821,4101.53846153846,4278.97435897436,4230.76923076923,4051.28205128205,4383.07692307692,1664,1696,40.196,40.0735015869141,0,0,0,0,2/8/2015 6:19:25 AM,
120,0,409,4718.46153846154,4096.41025641026,4006.66666666667,4327.69230769231,4565.12820512821,4456.92307692308,4313.84615384615,4388.20512820513,6095.38461538462,4083.58974358974,4296.41025641026,4229.74358974359,4053.33333333333,4397.94871794872,1664,1695,40.202,40.0735015869141,0,0,0,0,2/8/2015 6:19:25 AM,
121,0,441,4712.30769230769,4084.10256410256,4016.41025641026,4321.53846153846,4534.35897435897,4425.12820512821,4313.84615384615,4389.74358974359,6081.02564102564,4075.89743589744,4264.10256410256,4234.35897435897,4025.64102564103,4373.33333333333,1663,1695,40.211,40.1673316955566,0,0,0,0,2/8/2015 6:19:25 AM,
122,0,431,4715.38461538462,4076.41025641026,4013.84615384615,4329.74358974359,4541.53846153846,4423.58974358974,4313.84615384615,4398.97435897436,6087.69230769231,4076.41025641026,4237.94871794872,4232.30769230769,4013.84615384615,4370.76923076923,1664,1694,40.219,40.1673316955566,0,0,0,0,2/8/2015 6:19:25 AM,
123,0,452,4722.5641025641,4073.84615384615,3997.94871794872,4324.61538461538,4541.02564102564,4453.84615384615,4313.84615384615,4397.4358974359,6066.15384615385,4076.41025641026,4264.10256410256,4220.51282051282,4030.76923076923,4407.17948717949,1663,1694,40.227,40.1673316955566,0,0,0,0,2/8/2015 6:19:25 AM,
124,0,409,4718.97435897436,4072.30769230769,3981.53846153846,4310.25641025641,4524.10256410256,4466.66666666667,4313.84615384615,4394.35897435897,6046.15384615385,4084.10256410256,4280.51282051282,4203.07692307692,4035.89743589744,4404.10256410256,1664,1693,40.234,40.1673316955566,0,0,0,0,2/8/2015 6:19:25 AM,
125,0,441,4702.5641025641,4072.30769230769,3974.35897435898,4307.69230769231,4540,4457.4358974359,4313.84615384615,4397.94871794872,6057.4358974359,4082.5641025641,4263.58974358974,4195.38461538462,4022.05128205128,4369.23076923077,1662,1694,40.242,40.1673316955566,0,0,0,0,2/8/2015 6:19:25 AM,
126,0,431,4692.82051282051,4078.46153846154,3973.84615384615,4314.35897435897,4563.07692307692,4457.94871794872,4313.84615384615,4398.46153846154,6049.74358974359,4069.74358974359,4261.02564102564,4202.05128205128,4026.15384615385,4370.76923076923,1663,1693,40.249,40.1673316955566,0,0,0,0,2/8/2015 6:19:25 AM,
127,0,452,4693.33333333333,4079.48717948718,3978.46153846154,4313.84615384615,4544.10256410256,4466.66666666667,4313.33333333333,4393.33333333333,6022.5641025641,4067.17948717949,4268.20512820513,4211.79487179487,4036.41025641026,4376.92307692308,1663,1694,40.257,40.1673316955566,0,0,0,0,2/8/2015 6:19:25 AM,
128,0,409,4686.15384615385,4068.71794871795,3987.17948717949,4303.07692307692,4514.8717948718,4461.53846153846,4313.33333333333,4391.79487179487,6009.74358974359,4064.10256410256,4257.4358974359,4221.53846153846,4022.5641025641,4341.02564102564,1664,1695,40.266,40.1673316955566,0,0,0,0,2/8/2015 6:19:25 AM,
0,0,460,4685.12820512821,4066.66666666667,4001.53846153846,4306.66666666667,4516.41025641026,4454.8717948718,4313.84615384615,4393.84615384615,6000.51282051282,4055.89743589744,4261.53846153846,4232.82051282051,4018.97435897436,4344.61538461538,1664,1693,40.274,40.1673316955566,0,0,0,0,2/8/2015 6:19:25 AM,
1,0,442,4706.66666666667,4082.05128205128,4018.46153846154,4332.82051282051,4530.76923076923,4464.61538461538,4313.84615384615,4395.89743589744,5988.20512820513,4063.58974358974,4276.41025641026,4243.58974358974,4031.28205128205,4395.38461538462,1664,1693,40.282,40.1673316955566,0,0,0,0,2/8/2015 6:19:25 AM,
2,0,457,4723.58974358974,4092.82051282051,4021.53846153846,4340,4540.51282051282,4473.84615384615,4313.33333333333,4403.07692307692,5977.94871794872,4076.92307692308,4265.64102564103,4241.53846153846,4023.07692307692,4390.76923076923,1665,1691,40.288,40.1673316955566,0,0,0,0,2/8/2015 6:19:25 AM,
3,0,491,4717.4358974359,4082.5641025641,4008.71794871795,4313.33333333333,4553.33333333333,4474.8717948718,4316.41025641026,4411.79487179487,5968.20512820513,4072.30769230769,4257.4358974359,4228.20512820513,4017.94871794872,4361.53846153846,1665,1691,40.295,40.1673316955566,0,0,0,0,2/8/2015 6:19:25 AM,
4,0,486,4709.23076923077,4074.35897435898,3992.82051282051,4304.61538461538,4569.23076923077,4487.69230769231,4322.05128205128,4410.25641025641,5957.4358974359,4057.94871794872,4269.74358974359,4213.84615384615,4031.79487179487,4387.69230769231,1665,1690,40.303,40.1673316955566,0,0,0,0,2/8/2015 6:19:25 AM,
5,0,416,4694.8717948718,4075.38461538462,3982.05128205128,4320,4558.97435897436,4480,4319.48717948718,4400,5936.92307692308,4047.69230769231,4266.15384615385,4206.15384615385,4024.61538461539,4407.69230769231,1665,1691,40.311,40.1673316955566,0,0,0,0,2/8/2015 6:19:25 AM,
6,0,482,4686.66666666667,4065.64102564103,3987.17948717949,4312.82051282051,4515.38461538462,4443.58974358974,4312.82051282051,4394.8717948718,5915.89743589744,4055.38461538462,4241.53846153846,4210.76923076923,4001.02564102564,4371.28205128205,1666,1689,40.319,40.1673316955566,0,0,0,0,2/8/2015 6:19:25 AM,
7,0,0,4708.71794871795,4060,4000.51282051282,4305.64102564103,4509.23076923077,4454.8717948718,4312.30769230769,4395.38461538462,5918.46153846154,4069.74358974359,4240.51282051282,4216.92307692308,4006.66666666667,4362.05128205128,1664,1691,40.328,40.1673316955566,0,0,0,0,2/8/2015 6:19:25 AM,
8,0,407,4726.66666666667,4078.46153846154,4003.58974358974,4326.15384615385,4563.07692307692,4509.23076923077,4313.84615384615,4395.38461538462,5930.25641025641,4065.64102564103,4252.82051282051,4219.48717948718,4026.66666666667,4386.66666666667,1665,1692,40.335,40.2924385070801,0,0,0,0,2/8/2015 6:19:25 AM,
9,0,427,4711.28205128205,4083.07692307692,3993.33333333333,4327.69230769231,4579.48717948718,4509.23076923077,4313.84615384615,4386.66666666667,5916.41025641026,4056.92307692308,4240.51282051282,4212.82051282051,4027.17948717949,4384.10256410256,1664,1692,40.343,40.2924385070801,0,0,0,0,2/8/2015 6:19:25 AM,
10,0,431,4694.35897435897,4064.61538461539,3982.5641025641,4303.07692307692,4540,4472.82051282051,4314.35897435897,4372.82051282051,5891.28205128205,4061.53846153846,4226.15384615385,4204.61538461538,4016.92307692308,4383.07692307692,1664,1693,40.351,40.2924385070801,0,0,0,0,2/8/2015 6:19:25 AM,
11,0,452,4705.12820512821,4071.28205128205,3992.30769230769,4302.5641025641,4520,4476.92307692308,4313.33333333333,4372.30769230769,5885.12820512821,4066.15384615385,4229.23076923077,4211.79487179487,4011.28205128205,4385.12820512821,1664,1691,40.358,40.2924385070801,0,0,0,0,2/8/2015 6:19:25 AM,
12,0,409,4721.02564102564,4091.79487179487,4011.28205128205,4324.10256410256,4525.64102564103,4501.02564102564,4312.30769230769,4378.97435897436,5892.30769230769,4065.64102564103,4229.74358974359,4229.23076923077,4016.41025641026,4369.23076923077,1663,1691,40.366,40.2924385070801,0,0,0,0,2/8/2015 6:19:25 AM,
13,0,441,4718.97435897436,4085.12820512821,4006.66666666667,4330.25641025641,4535.89743589744,4498.46153846154,4313.84615384615,4381.53846153846,5890.76923076923,4065.12820512821,4227.69230769231,4227.17948717949,4029.74358974359,4383.58974358974,1664,1690,40.373,40.2924385070801,0,0,0,0,2/8/2015 6:19:25 AM,
14,0,431,4694.35897435897,4066.66666666667,3986.15384615385,4315.89743589744,4552.30769230769,4469.23076923077,4314.35897435897,4372.30769230769,5868.20512820513,4061.53846153846,4233.84615384615,4204.10256410256,4031.28205128205,4397.4358974359,1663,1692,40.381,40.2924385070801,0,0,0,0,2/8/2015 6:19:25 AM,
15,0,452,4679.48717948718,4065.64102564103,3982.5641025641,4308.20512820513,4556.41025641026,4460.51282051282,4313.33333333333,4358.97435897436,5843.58974358974,4060.51282051282,4235.89743589744,4200,4018.97435897436,4346.15384615385,1663,1692,40.39,40.2924385070801,0,0,0,0,2/8/2015 6:19:25 AM,
16,0,0,4704.10256410256,4076.92307692308,4001.02564102564,4316.92307692308,4542.05128205128,4484.61538461538,4313.84615384615,4356.41025641026,5839.48717948718,4064.10256410256,4224.10256410256,4225.12820512821,4013.33333333333,4319.48717948718,1663,1693,40.398,40.2924385070801,0,0,0,0,2/8/2015 6:19:25 AM,
17,0,0,4729.74358974359,4086.66666666667,4017.4358974359,4318.97435897436,4533.33333333333,4494.35897435897,4313.84615384615,4357.94871794872,5834.35897435898,4068.20512820513,4218.97435897436,4238.46153846154,4021.53846153846,4385.12820512821,1663,1692,40.406,40.2924385070801,0,0,0,0,2/8/2015 6:19:25 AM,
18,0,0,4727.69230769231,4089.74358974359,4017.4358974359,4320.51282051282,4533.84615384615,4489.74358974359,4313.84615384615,4359.48717948718,5820,4068.20512820513,4226.15384615385,4223.07692307692,4029.74358974359,4436.92307692308,1662,1693,40.414,40.2924385070801,0,0,0,0,2/8/2015 6:19:25 AM,
19,0,0,4722.05128205128,4087.17948717949,4002.05128205128,4332.82051282051,4545.64102564103,4503.07692307692,4313.84615384615,4367.69230769231,5825.12820512821,4063.58974358974,4229.23076923077,4205.12820512821,4032.30769230769,4420,1663,1693,40.42,40.2924385070801,0,0,0,0,2/8/2015 6:19:25 AM,
20,0,0,4727.17948717949,4094.35897435898,3999.48717948718,4334.8717948718,4562.05128205128,4516.41025641026,4313.84615384615,4372.82051282051,5832.30769230769,4062.05128205128,4225.64102564103,4210.76923076923,4028.20512820513,4378.97435897436,1662,1693,40.428,40.2924385070801,0,0,0,0,2/8/2015 6:19:25 AM,
21,0,0,4727.69230769231,4098.97435897436,4016.92307692308,4329.23076923077,4556.92307692308,4496.41025641026,4313.33333333333,4365.64102564103,5807.17948717949,4054.8717948718,4224.10256410256,4226.15384615385,4023.07692307692,4352.30769230769,1663,1693,40.436,40.2924385070801,0,0,0,0,2/8/2015 6:19:25 AM,
22,0,0,4723.07692307692,4087.69230769231,4015.89743589744,4330.25641025641,4543.07692307692,4471.28205128205,4311.28205128205,4362.5641025641,5795.38461538462,4050.76923076923,4218.97435897436,4223.58974358974,4020.51282051282,4376.41025641026,1663,1692,40.444,40.2924385070801,0,0,0,0,2/8/2015 6:19:25 AM,
23,0,0,4723.58974358974,4084.10256410256,3997.94871794872,4325.64102564103,4564.10256410256,4477.94871794872,4312.30769230769,4369.23076923077,5810.25641025641,4067.69230769231,4211.28205128205,4214.35897435897,4018.46153846154,4415.89743589744,1662,1693,40.452,40.2924385070801,0,0,0,0,2/8/2015 6:19:25 AM,
24,0,0,4721.02564102564,4094.8717948718,4001.02564102564,4331.79487179487,4582.5641025641,4494.35897435897,4315.89743589744,4367.69230769231,5797.4358974359,4076.92307692308,4221.53846153846,4213.33333333333,4022.5641025641,4412.30769230769,1663,1691,40.459,40.4175453186035,0,0,0,0,2/8/2015 6:19:25 AM,
25,0,0,4715.38461538462,4093.84615384615,4017.4358974359,4345.64102564103,4550.25641025641,4496.41025641026,4314.8717948718,4360,5771.79487179487,4062.05128205128,4232.82051282051,4218.46153846154,4032.82051282051,4377.94871794872,1662,1692,40.467,40.4175453186035,0,0,0,0,2/8/2015 6:19:25 AM,
26,0,0,4709.23076923077,4080,4018.46153846154,4325.12820512821,4525.64102564103,4490.25641025641,4312.30769230769,4355.38461538462,5763.07692307692,4056.92307692308,4218.46153846154,4232.82051282051,4022.05128205128,4343.58974358974,1663,1692,40.475,40.4175453186035,0,0,0,0,2/8/2015 6:19:25 AM,
27,0,0,4703.58974358974,4072.30769230769,4003.58974358974,4298.46153846154,4546.66666666667,4481.53846153846,4314.35897435897,4354.8717948718,5742.05128205128,4057.94871794872,4208.20512820513,4237.94871794872,3992.82051282051,4353.84615384615,1663,1693,40.483,40.4175453186035,0,0,0,0,2/8/2015 6:19:25 AM,
28,0,0,4708.71794871795,4071.28205128205,3987.69230769231,4307.17948717949,4568.20512820513,4477.4358974359,4314.35897435897,4359.48717948718,5725.64102564103,4044.10256410256,4212.30769230769,4212.82051282051,3994.35897435898,4396.92307692308,1664,1692,40.491,40.4175453186035,0,0,0,0,2/8/2015 6:19:25 AM,
29,0,0,4719.48717948718,4073.84615384615,3988.20512820513,4321.02564102564,4552.82051282051,4473.84615384615,4312.30769230769,4368.71794871795,5743.07692307692,4043.07692307692,4210.76923076923,4198.46153846154,4018.97435897436,4389.23076923077,1663,1693,40.499,40.4175453186035,0,0,0,0,2/8/2015 6:19:25 AM,
30,0,0,4709.23076923077,4076.41025641026,4004.10256410256,4319.48717948718,4515.38461538462,4460,4313.33333333333,4373.33333333333,5743.07692307692,4053.33333333333,4201.53846153846,4224.61538461538,4011.79487179487,4333.84615384615,1664,1693,40.506,40.4175453186035,0,0,0,0,2/8/2015 6:19:25 AM,
31,0,0,4691.79487179487,4068.20512820513,4008.20512820513,4316.92307692308,4513.84615384615,4458.97435897436,4314.35897435897,4372.82051282051,5715.89743589744,4049.74358974359,4197.94871794872,4236.41025641026,3986.66666666667,4342.5641025641,1664,1693,40.514,40.4175453186035,0,0,0,0,2/8/2015 6:19:25 AM,
32,0,0,4700.51282051282,4057.94871794872,4002.05128205128,4310.76923076923,4565.12820512821,4485.64102564103,4313.33333333333,4377.94871794872,5711.79487179487,4050.76923076923,4202.5641025641,4216.41025641026,3991.28205128205,4395.89743589744,1665,1694,40.522,40.4175453186035,0,0,0,0,2/8/2015 6:19:25 AM,
33,0,0,4724.61538461539,4067.17948717949,4000.51282051282,4306.66666666667,4598.97435897436,4496.41025641026,4313.84615384615,4387.69230769231,5719.48717948718,4061.53846153846,4213.84615384615,4209.74358974359,4012.82051282051,4405.64102564103,1665,1693,40.53,40.4175453186035,0,0,0,0,2/8/2015 6:19:25 AM,
34,0,0,4723.58974358974,4082.5641025641,3995.38461538462,4315.89743589744,4572.82051282051,4484.10256410256,4313.33333333333,4388.20512820513,5706.66666666667,4058.97435897436,4213.84615384615,4222.5641025641,4009.23076923077,4376.92307692308,1664,1695,40.538,40.4175453186035,0,0,0,0,2/8/2015 6:19:25 AM,
35,0,0,4679.48717948718,4065.12820512821,4001.02564102564,4317.4358974359,4526.66666666667,4468.20512820513,4312.30769230769,4380.51282051282,5686.66666666667,4046.66666666667,4190.25641025641,4233.84615384615,3986.15384615385,4331.28205128205,1665,1693,40.546,40.4175453186035,0,0,0,0,2/8/2015 6:19:25 AM,
36,0,0,4656.41025641026,4030.76923076923,4011.79487179487,4299.48717948718,4509.74358974359,4436.92307692308,4312.82051282051,4372.30769230769,5673.33333333333,4049.74358974359,4174.35897435897,4231.28205128205,3978.46153846154,4324.10256410256,1665,1693,40.553,40.4175453186035,0,0,0,0,2/8/2015 6:19:25 AM,
37,0,0,4701.02564102564,4035.38461538462,3989.23076923077,4290.76923076923,4543.07692307692,4421.02564102564,4313.84615384615,4364.61538461538,5652.30769230769,4059.48717948718,4188.71794871795,4212.30769230769,3989.23076923077,4378.46153846154,1665,1692,40.561,40.4175453186035,0,0,0,0,2/8/2015 6:19:25 AM,
38,0,0,4727.69230769231,4056.41025641026,3975.38461538462,4296.41025641026,4568.20512820513,4438.97435897436,4313.84615384615,4361.02564102564,5632.30769230769,4061.53846153846,4204.61538461538,4204.10256410256,3990.76923076923,4391.79487179487,1664,1691,40.569,40.4175453186035,0,0,0,0,2/8/2015 6:19:25 AM,
39,0,0,4698.46153846154,4050.25641025641,4001.02564102564,4295.89743589744,4547.17948717949,4443.07692307692,4313.84615384615,4369.23076923077,5635.89743589744,4059.48717948718,4202.05128205128,4216.41025641026,3985.64102564103,4350.25641025641,1664,1692,40.577,40.4175453186035,0,0,0,0,2/8/2015 6:19:25 AM,
40,0,0,4702.5641025641,4049.74358974359,4007.17948717949,4296.92307692308,4552.82051282051,4442.05128205128,4313.84615384615,4387.17948717949,5654.8717948718,4058.46153846154,4196.92307692308,4221.53846153846,3994.8717948718,4364.10256410256,1664,1693,40.585,40.542652130127,0,0,0,0,2/8/2015 6:19:25 AM,
41,0,0,4733.84615384615,4076.41025641026,3984.61538461539,4317.4358974359,4575.89743589744,4463.07692307692,4313.84615384615,4397.94871794872,5656.41025641026,4058.97435897436,4203.07692307692,4216.92307692308,4005.12820512821,4412.82051282051,1664,1693,40.592,40.542652130127,0,0,0,0,2/8/2015 6:19:25 AM,
42,0,0,4714.8717948718,4079.48717948718,3986.15384615385,4329.74358974359,4549.74358974359,4469.23076923077,4313.84615384615,4396.92307692308,5634.8717948718,4058.97435897436,4206.66666666667,4217.4358974359,4002.5641025641,4399.48717948718,1663,1693,40.601,40.542652130127,0,0,0,0,2/8/2015 6:19:25 AM,
43,0,0,4689.74358974359,4055.89743589744,4002.5641025641,4310.25641025641,4525.64102564103,4455.89743589744,4313.84615384615,4399.48717948718,5623.07692307692,4061.02564102564,4194.8717948718,4222.05128205128,3987.17948717949,4363.58974358974,1664,1695,40.609,40.542652130127,0,0,0,0,2/8/2015 6:19:25 AM,
44,0,0,4705.12820512821,4051.28205128205,4003.07692307692,4289.23076923077,4541.53846153846,4459.48717948718,4313.84615384615,4405.64102564103,5623.07692307692,4058.46153846154,4181.53846153846,4221.02564102564,3971.79487179487,4347.69230769231,1663,1695,40.618,40.5739326477051,0,0,0,0,2/8/2015 6:19:25 AM,
45,0,0,4709.74358974359,4053.33333333333,3997.94871794872,4295.38461538462,4546.66666666667,4463.07692307692,4313.84615384615,4405.64102564103,5613.84615384615,4055.89743589744,4181.53846153846,4218.46153846154,3967.17948717949,4337.94871794872,1664,1693,40.626,40.5739326477051,0,0,0,0,2/8/2015 6:19:25 AM,
46,0,0,4690.25641025641,4048.71794871795,4004.10256410256,4312.82051282051,4535.89743589744,4450.76923076923,4313.84615384615,4405.64102564103,5607.69230769231,4068.20512820513,4187.69230769231,4223.58974358974,3975.38461538462,4340,1664,1692,40.633,40.5739326477051,0,0,0,0,2/8/2015 6:19:25 AM,
47,0,0,4696.41025641026,4054.35897435898,4012.30769230769,4318.97435897436,4539.48717948718,4443.58974358974,4313.84615384615,4411.79487179487,5612.30769230769,4079.48717948718,4188.20512820513,4231.28205128205,3985.12820512821,4362.5641025641,1664,1693,40.64,40.5739326477051,0,0,0,0,2/8/2015 6:19:25 AM,
48,0,0,4712.30769230769,4065.64102564103,4007.69230769231,4312.30769230769,4549.23076923077,4445.12820512821,4313.33333333333,4408.20512820513,5602.5641025641,4072.82051282051,4187.69230769231,4229.74358974359,3982.5641025641,4397.94871794872,1664,1694,40.648,40.5739326477051,0,0,0,0,2/8/2015 6:19:25 AM,
49,0,0,4695.89743589744,4061.02564102564,4003.07692307692,4300.51282051282,4558.97435897436,4454.8717948718,4312.30769230769,4398.97435897436,5583.07692307692,4063.58974358974,4187.69230769231,4228.20512820513,3975.38461538462,4404.61538461538,1665,1693,40.71,40.5739326477051,0,0,0,0,2/8/2015 6:19:25 AM,
50,0,0,4695.38461538462,4050.76923076923,4005.12820512821,4305.64102564103,4558.97435897436,4462.05128205128,4311.79487179487,4397.94871794872,5572.82051282051,4068.20512820513,4190.25641025641,4233.33333333333,3972.30769230769,4373.33333333333,1664,1693,40.712,40.5739326477051,0,0,0,0,2/8/2015 6:19:25 AM,
51,0,0,4721.02564102564,4054.35897435898,4010.25641025641,4321.02564102564,4537.94871794872,4453.84615384615,4312.30769230769,4395.38461538462,5567.17948717949,4076.41025641026,4197.94871794872,4236.41025641026,3972.30769230769,4370.25641025641,1664,1695,40.712,40.5739326477051,0,0,0,0,2/8/2015 6:19:25 AM,
52,0,0,4720,4066.66666666667,4018.97435897436,4317.4358974359,4531.28205128205,4450.76923076923,4312.30769230769,4397.94871794872,5575.89743589744,4081.02564102564,4201.53846153846,4233.84615384615,3972.30769230769,4393.33333333333,1664,1693,40.712,40.5739326477051,0,0,0,0,2/8/2015 6:19:25 AM,
53,0,0,4711.28205128205,4070.25641025641,4017.94871794872,4308.71794871795,4556.92307692308,4462.5641025641,4313.33333333333,4417.94871794872,5592.30769230769,4084.61538461539,4200,4233.84615384615,3976.92307692308,4387.17948717949,1663,1694,40.712,40.5739326477051,0,0,0,0,2/8/2015 6:19:25 AM,
54,0,0,4717.4358974359,4057.4358974359,4004.61538461539,4308.71794871795,4563.58974358974,4458.97435897436,4313.33333333333,4431.28205128205,5591.28205128205,4084.10256410256,4200,4236.41025641026,3973.84615384615,4384.10256410256,1664,1692,40.712,40.5739326477051,0,0,0,0,2/8/2015 6:19:25 AM,
55,0,0,4708.20512820513,4045.64102564103,3994.8717948718,4303.07692307692,4543.07692307692,4441.02564102564,4312.82051282051,4424.10256410256,5576.92307692308,4077.94871794872,4194.8717948718,4230.25641025641,3961.53846153846,4403.07692307692,1664,1693,40.712,40.5739326477051,0,0,0,0,2/8/2015 6:19:25 AM,
56,0,0,4692.30769230769,4040.51282051282,3994.35897435898,4292.30769230769,4530.25641025641,4444.10256410256,4315.38461538462,4415.89743589744,5558.46153846154,4075.38461538462,4181.53846153846,4218.46153846154,3952.82051282051,4377.94871794872,1664,1693,40.712,40.6677627563477,0,0,0,0,2/8/2015 6:19:25 AM,
57,0,0,4688.71794871795,4040.51282051282,3997.4358974359,4292.30769230769,4524.10256410256,4460.51282051282,4318.46153846154,4414.8717948718,5540.51282051282,4089.23076923077,4182.05128205128,4218.97435897436,3958.46153846154,4344.61538461538,1663,1693,40.72,40.6677627563477,0,0,0,0,2/8/2015 6:19:25 AM,
58,0,0,4684.10256410256,4048.20512820513,4007.69230769231,4294.8717948718,4524.10256410256,4462.05128205128,4318.97435897436,4412.30769230769,5536.92307692308,4089.74358974359,4196.41025641026,4231.28205128205,3969.23076923077,4372.30769230769,1663,1693,40.726,40.6677627563477,0,0,0,0,2/8/2015 6:19:25 AM,
59,0,0,4697.94871794872,4060.51282051282,4007.17948717949,4294.35897435897,4543.58974358974,4458.46153846154,4317.94871794872,4411.79487179487,5541.53846153846,4068.20512820513,4198.46153846154,4236.41025641026,3967.69230769231,4408.71794871795,1664,1693,40.734,40.6677627563477,0,0,0,0,2/8/2015 6:19:25 AM,
60,0,0,4727.17948717949,4069.23076923077,3993.84615384615,4299.48717948718,4559.48717948718,4460,4317.4358974359,4414.8717948718,5530.76923076923,4066.15384615385,4198.46153846154,4233.84615384615,3966.15384615385,4401.02564102564,1663,1693,40.742,40.6677627563477,0,0,0,0,2/8/2015 6:19:25 AM,
61,0,0,4718.46153846154,4066.15384615385,3993.33333333333,4299.48717948718,4552.82051282051,4456.41025641026,4317.4358974359,4408.20512820513,5511.28205128205,4081.53846153846,4204.10256410256,4229.74358974359,3972.82051282051,4384.10256410256,1663,1691,40.749,40.6677627563477,0,0,0,0,2/8/2015 6:19:25 AM,
62,0,0,4692.82051282051,4058.46153846154,3999.48717948718,4295.38461538462,4536.41025641026,4450.25641025641,4318.46153846154,4395.89743589744,5498.97435897436,4082.05128205128,4193.84615384615,4221.02564102564,3967.69230769231,4389.23076923077,1664,1693,40.757,40.6677627563477,0,0,0,0,2/8/2015 6:19:25 AM,
63,0,0,4700,4060.51282051282,3995.89743589744,4298.46153846154,4520.51282051282,4440,4319.48717948718,4396.41025641026,5485.64102564103,4076.92307692308,4182.05128205128,4218.97435897436,3953.33333333333,4384.61538461538,1665,1691,40.764,40.6677627563477,0,0,0,0,2/8/2015 6:19:25 AM,
64,0,460,4708.71794871795,4067.17948717949,3988.20512820513,4293.33333333333,4532.30769230769,4435.38461538462,4317.94871794872,4405.64102564103,5483.07692307692,4083.07692307692,4195.38461538462,4221.02564102564,3961.02564102564,4388.20512820513,1664,1692,40.772,40.6677627563477,0,0,0,0,2/8/2015 6:19:25 AM,
65,0,442,4696.41025641026,4062.5641025641,3989.74358974359,4281.53846153846,4558.97435897436,4451.79487179487,4317.94871794872,4411.28205128205,5501.02564102564,4085.12820512821,4208.71794871795,4218.46153846154,3982.05128205128,4407.69230769231,1665,1692,40.781,40.6677627563477,0,0,0,0,2/8/2015 6:19:25 AM,
66,0,453,4692.82051282051,4056.41025641026,4001.02564102564,4291.28205128205,4554.8717948718,4468.71794871795,4318.46153846154,4412.82051282051,5513.33333333333,4081.02564102564,4198.97435897436,4222.5641025641,3981.02564102564,4385.12820512821,1664,1692,40.789,40.6677627563477,0,0,0,0,2/8/2015 6:19:25 AM,
67,0,491,4708.71794871795,4068.71794871795,4012.30769230769,4316.92307692308,4545.64102564103,4470.25641025641,4317.94871794872,4416.92307692308,5502.05128205128,4087.17948717949,4197.4358974359,4234.8717948718,3973.84615384615,4362.05128205128,1664,1695,40.797,40.6677627563477,0,0,0,0,2/8/2015 6:19:25 AM,
68,0,484,4723.58974358974,4081.02564102564,4016.41025641026,4316.92307692308,4550.76923076923,4464.10256410256,4317.94871794872,4414.8717948718,5488.20512820513,4094.8717948718,4208.71794871795,4240.51282051282,3977.94871794872,4390.76923076923,1666,1694,40.805,40.6677627563477,0,0,0,0,2/8/2015 6:19:25 AM,
69,0,445,4712.30769230769,4081.53846153846,4004.61538461539,4300,4552.30769230769,4447.69230769231,4317.94871794872,4401.02564102564,5474.35897435898,4089.74358974359,4208.20512820513,4227.69230769231,3978.46153846154,4427.17948717949,1665,1695,40.812,40.6677627563477,0,0,0,0,2/8/2015 6:19:25 AM,
70,0,482,4696.41025641026,4077.94871794872,3990.76923076923,4295.89743589744,4551.28205128205,4442.05128205128,4317.94871794872,4389.74358974359,5452.30769230769,4081.53846153846,4197.94871794872,4211.28205128205,3973.84615384615,4421.02564102564,1665,1694,40.82,40.6677627563477,0,0,0,0,2/8/2015 6:19:25 AM,
71,0,0,4692.82051282051,4071.28205128205,3992.82051282051,4297.4358974359,4550.25641025641,4460.51282051282,4317.94871794872,4385.12820512821,5439.48717948718,4084.10256410256,4186.66666666667,4219.48717948718,3970.25641025641,4366.66666666667,1665,1694,40.828,40.6677627563477,0,0,0,0,2/8/2015 6:19:25 AM,
72,0,407,4683.07692307692,4065.12820512821,4004.61538461539,4301.02564102564,4551.28205128205,4462.05128205128,4317.94871794872,4384.61538461538,5441.53846153846,4084.10256410256,4186.66666666667,4236.92307692308,3966.15384615385,4339.48717948718,1665,1694,40.835,40.7928695678711,0,0,0,0,2/8/2015 6:19:25 AM,
73,0,427,4683.58974358974,4077.4358974359,4007.69230769231,4310.76923076923,4560,4452.30769230769,4317.94871794872,4390.25641025641,5449.74358974359,4075.89743589744,4204.10256410256,4226.66666666667,3967.69230769231,4409.74358974359,1664,1693,40.843,40.7928695678711,0,0,0,0,2/8/2015 6:19:25 AM,
74,0,431,4718.46153846154,4091.28205128205,4002.05128205128,4315.89743589744,4554.35897435897,4464.10256410256,4317.94871794872,4400.51282051282,5451.79487179487,4075.38461538462,4214.35897435897,4213.84615384615,3978.46153846154,4466.15384615385,1664,1691,40.85,40.7928695678711,0,0,0,0,2/8/2015 6:19:25 AM,
75,0,452,4732.30769230769,4078.46153846154,4001.02564102564,4310.25641025641,4530.76923076923,4461.53846153846,4317.94871794872,4400.51282051282,5439.48717948718,4084.10256410256,4196.92307692308,4229.74358974359,3975.38461538462,4404.10256410256,1663,1691,40.858,40.7928695678711,0,0,0,0,2/8/2015 6:19:25 AM,
76,0,409,4703.58974358974,4060.51282051282,4003.07692307692,4305.12820512821,4535.38461538462,4433.33333333333,4317.94871794872,4389.23076923077,5418.97435897436,4089.23076923077,4187.17948717949,4236.92307692308,3963.07692307692,4358.97435897436,1664,1691,40.867,40.7928695678711,0,0,0,0,2/8/2015 6:19:26 AM,
77,0,441,4700.51282051282,4065.12820512821,4005.12820512821,4311.79487179487,4557.94871794872,4433.33333333333,4318.46153846154,4382.05128205128,5404.10256410256,4083.58974358974,4206.66666666667,4228.71794871795,3972.82051282051,4378.46153846154,1663,1692,40.875,40.7928695678711,0,0,0,0,2/8/2015 6:19:26 AM,
78,0,431,4721.02564102564,4083.58974358974,4004.61538461539,4313.84615384615,4549.23076923077,4449.74358974359,4317.94871794872,4382.05128205128,5404.61538461539,4071.28205128205,4218.46153846154,4228.71794871795,3985.64102564103,4384.61538461538,1664,1693,40.883,40.7928695678711,0,0,0,0,2/8/2015 6:19:26 AM,
79,0,452,4723.58974358974,4088.71794871795,3998.97435897436,4306.66666666667,4530.76923076923,4447.17948717949,4317.94871794872,4382.05128205128,5405.64102564103,4071.79487179487,4220,4227.17948717949,3980.51282051282,4407.69230769231,1664,1693,40.891,40.7928695678711,0,0,0,0,2/8/2015 6:19:26 AM,
80,0,409,4721.53846153846,4078.46153846154,3994.8717948718,4310.25641025641,4532.82051282051,4441.53846153846,4318.97435897436,4378.46153846154,5390.25641025641,4082.5641025641,4218.46153846154,4217.94871794872,3972.82051282051,4428.71794871795,1663,1695,40.898,40.7928695678711,0,0,0,0,2/8/2015 6:19:26 AM,
81,0,441,4716.41025641026,4074.8717948718,3992.82051282051,4319.48717948718,4545.64102564103,4441.53846153846,4316.41025641026,4369.23076923077,5373.33333333333,4078.97435897436,4204.61538461538,4214.8717948718,3974.35897435898,4393.33333333333,1664,1695,40.906,40.7928695678711,0,0,0,0,2/8/2015 6:19:26 AM,
82,0,431,4696.41025641026,4081.02564102564,4000,4314.8717948718,4552.30769230769,4432.30769230769,4312.82051282051,4361.02564102564,5372.82051282051,4073.84615384615,4200,4220.51282051282,3973.84615384615,4363.07692307692,1664,1696,40.915,40.7928695678711,0,0,0,0,2/8/2015 6:19:26 AM,
83,0,452,4688.20512820513,4086.15384615385,4011.28205128205,4308.71794871795,4545.12820512821,4422.5641025641,4312.82051282051,4367.17948717949,5378.97435897436,4085.12820512821,4212.30769230769,4230.76923076923,3975.38461538462,4375.89743589744,1664,1696,40.922,40.7928695678711,0,0,0,0,2/8/2015 6:19:26 AM,
84,0,409,4700,4078.97435897436,4014.8717948718,4311.79487179487,4532.82051282051,4433.84615384615,4313.84615384615,4379.48717948718,5380.51282051282,4090.76923076923,4209.74358974359,4236.92307692308,3973.33333333333,4371.79487179487,1664,1696,40.929,40.7928695678711,0,0,0,0,2/8/2015 6:19:26 AM,
85,0,441,4704.10256410256,4061.53846153846,4015.89743589744,4309.23076923077,4537.4358974359,4451.28205128205,4313.33333333333,4384.10256410256,5381.53846153846,4089.23076923077,4191.79487179487,4233.33333333333,3962.05128205128,4362.05128205128,1665,1694,40.937,40.7928695678711,0,0,0,0,2/8/2015 6:19:26 AM,
86,0,431,4716.92307692308,4064.61538461539,4014.8717948718,4311.28205128205,4560,4445.64102564103,4313.33333333333,4382.5641025641,5384.10256410256,4095.38461538462,4197.4358974359,4227.69230769231,3962.5641025641,4396.92307692308,1664,1695,40.944,40.7928695678711,0,0,0,0,2/8/2015 6:19:26 AM,
87,0,452,4741.02564102564,4090.76923076923,4010.25641025641,4318.46153846154,4565.12820512821,4431.79487179487,4313.84615384615,4377.4358974359,5372.30769230769,4090.76923076923,4220.51282051282,4233.84615384615,3974.35897435898,4420,1664,1694,40.952,40.7928695678711,0,0,0,0,2/8/2015 6:19:26 AM,
88,0,409,4735.38461538462,4096.92307692308,4004.10256410256,4321.53846153846,4553.84615384615,4435.89743589744,4313.84615384615,4372.82051282051,5344.10256410256,4077.94871794872,4222.05128205128,4238.46153846154,3976.41025641026,4410.25641025641,1664,1694,40.961,40.9179763793945,0,0,0,0,2/8/2015 6:19:26 AM,
89,0,441,4710.76923076923,4080,4002.05128205128,4320.51282051282,4536.92307692308,4442.05128205128,4313.33333333333,4373.33333333333,5332.30769230769,4086.15384615385,4206.66666666667,4227.17948717949,3974.35897435898,4406.66666666667,1665,1695,40.969,40.9179763793945,0,0,0,0,2/8/2015 6:19:26 AM,
90,0,431,4703.58974358974,4076.92307692308,4012.30769230769,4319.48717948718,4515.38461538462,4425.64102564103,4313.33333333333,4370.76923076923,5341.53846153846,4096.41025641026,4203.07692307692,4220.51282051282,3973.33333333333,4397.94871794872,1664,1693,40.977,40.9179763793945,0,0,0,0,2/8/2015 6:19:26 AM,
91,0,452,4722.5641025641,4086.15384615385,4018.97435897436,4318.97435897436,4529.74358974359,4418.46153846154,4317.94871794872,4365.64102564103,5344.61538461539,4091.28205128205,4216.41025641026,4228.71794871795,3973.84615384615,4406.66666666667,1664,1695,40.984,40.9179763793945,0,0,0,0,2/8/2015 6:19:26 AM,
92,0,409,4744.10256410256,4093.84615384615,4005.64102564103,4319.48717948718,4579.48717948718,4438.97435897436,4320,4374.8717948718,5344.10256410256,4088.20512820513,4225.64102564103,4240,3979.48717948718,4438.97435897436,1664,1692,40.991,40.9179763793945,0,0,0,0,2/8/2015 6:19:26 AM,
93,0,441,4734.35897435897,4095.89743589744,3998.46153846154,4326.66666666667,4585.12820512821,4451.28205128205,4318.97435897436,4392.82051282051,5345.12820512821,4088.71794871795,4228.20512820513,4248.71794871795,3984.61538461539,4417.94871794872,1663,1693,40.999,40.9179763793945,0,0,0,0,2/8/2015 6:19:26 AM,
94,0,431,4708.71794871795,4088.71794871795,4017.94871794872,4332.30769230769,4547.69230769231,4446.66666666667,4318.97435897436,4400,5348.20512820513,4085.12820512821,4231.28205128205,4250.25641025641,3984.10256410256,4392.82051282051,1664,1692,41.007,40.9179763793945,0,0,0,0,2/8/2015 6:19:26 AM,
95,0,452,4707.17948717949,4084.61538461539,4028.20512820513,4331.28205128205,4542.5641025641,4443.58974358974,4320,4398.97435897436,5354.35897435897,4083.07692307692,4233.84615384615,4249.74358974359,3989.23076923077,4385.64102564103,1663,1692,41.015,40.9179763793945,0,0,0,0,2/8/2015 6:19:26 AM,
96,0,409,4724.10256410256,4087.69230769231,4009.23076923077,4323.07692307692,4549.23076923077,4441.53846153846,4318.97435897436,4397.94871794872,5347.69230769231,4083.58974358974,4229.74358974359,4259.48717948718,3991.28205128205,4285.64102564103,1663,1691,41.023,40.9179763793945,0,0,0,0,2/8/2015 6:19:26 AM,
97,0,441,4735.38461538462,4094.8717948718,3999.48717948718,4316.92307692308,4534.8717948718,4448.20512820513,4318.46153846154,4398.97435897436,5324.61538461539,4087.17948717949,4228.20512820513,4261.53846153846,3989.23076923077,4186.15384615385,1662,1692,41.03,40.9179763793945,0,0,0,0,2/8/2015 6:19:26 AM,
98,0,431,4727.69230769231,4094.8717948718,4014.8717948718,4320.51282051282,4536.41025641026,4467.17948717949,4318.97435897436,4397.94871794872,5307.17948717949,4093.33333333333,4229.74358974359,4243.58974358974,3989.23076923077,4196.92307692308,1663,1691,41.038,40.9179763793945,0,0,0,0,2/8/2015 6:19:26 AM,
99,0,452,4709.23076923077,4081.53846153846,4025.64102564103,4324.61538461538,4561.02564102564,4469.23076923077,4318.46153846154,4396.92307692308,5307.17948717949,4088.20512820513,4224.61538461538,4243.07692307692,3975.89743589744,4163.07692307692,1663,1692,41.046,40.9179763793945,0,0,0,0,2/8/2015 6:19:26 AM,
100,0,409,4714.35897435897,4084.10256410256,4010.76923076923,4326.15384615385,4575.89743589744,4460,4318.46153846154,4399.48717948718,5307.69230769231,4072.30769230769,4214.35897435897,4254.8717948718,3961.53846153846,4081.02564102564,1664,1693,41.054,40.9179763793945,0,0,0,0,2/8/2015 6:19:26 AM,
101,0,441,4724.61538461539,4105.12820512821,3992.82051282051,4326.66666666667,4558.97435897436,4456.41025641026,4319.48717948718,4395.38461538462,5296.41025641026,4063.58974358974,4214.35897435897,4241.02564102564,3968.20512820513,4109.23076923077,1665,1693,41.062,40.9179763793945,0,0,0,0,2/8/2015 6:19:26 AM,
102,0,431,4706.66666666667,4101.02564102564,4004.61538461539,4330.25641025641,4516.92307692308,4436.92307692308,4318.46153846154,4386.66666666667,5283.07692307692,4064.61538461539,4217.94871794872,4232.30769230769,3978.46153846154,4146.15384615385,1665,1692,41.069,40.9179763793945,0,0,0,0,2/8/2015 6:19:26 AM,
103,0,452,4706.15384615385,4078.46153846154,4031.28205128205,4324.10256410256,4515.89743589744,4434.35897435897,4316.92307692308,4389.23076923077,5284.61538461539,4068.71794871795,4215.38461538462,4248.20512820513,3970.25641025641,4096.92307692308,1665,1694,41.077,40.9179763793945,0,0,0,0,2/8/2015 6:19:26 AM,
104,0,409,4722.5641025641,4080.51282051282,4029.74358974359,4325.12820512821,4563.58974358974,4464.10256410256,4317.94871794872,4395.38461538462,5289.74358974359,4067.69230769231,4212.82051282051,4258.46153846154,3956.41025641026,4067.17948717949,1665,1693,41.085,41.043083190918,0,0,0,0,2/8/2015 6:19:26 AM,
105,0,441,4711.28205128205,4096.41025641026,4004.61538461539,4340.51282051282,4578.46153846154,4468.71794871795,4318.97435897436,4392.82051282051,5282.5641025641,4064.61538461539,4214.8717948718,4252.30769230769,3956.41025641026,4098.46153846154,1665,1693,41.093,41.043083190918,0,0,0,0,2/8/2015 6:19:26 AM,
106,0,431,4688.20512820513,4088.71794871795,4000,4327.17948717949,4546.15384615385,4452.82051282051,4317.94871794872,4384.10256410256,5258.97435897436,4072.82051282051,4215.89743589744,4240,3965.64102564103,4120,1666,1692,41.101,41.043083190918,0,0,0,0,2/8/2015 6:19:26 AM,
107,0,452,4693.33333333333,4069.74358974359,4009.23076923077,4307.69230769231,4529.23076923077,4458.46153846154,4317.94871794872,4374.8717948718,5231.28205128205,4076.92307692308,4214.8717948718,4232.30769230769,3969.23076923077,4090.25641025641,1664,1691,41.111,41.043083190918,0,0,0,0,2/8/2015 6:19:26 AM,
108,0,409,4708.71794871795,4075.89743589744,4003.58974358974,4322.05128205128,4537.94871794872,4455.89743589744,4318.46153846154,4370.76923076923,5227.17948717949,4062.05128205128,4216.92307692308,4236.92307692308,3966.15384615385,4063.58974358974,1664,1692,41.118,41.0743598937988,0,0,0,0,2/8/2015 6:19:26 AM,
109,0,441,4704.10256410256,4092.30769230769,3998.97435897436,4336.92307692308,4532.82051282051,4431.79487179487,4317.94871794872,4373.33333333333,5242.5641025641,4058.97435897436,4222.05128205128,4247.69230769231,3967.17948717949,4062.5641025641,1665,1689,41.125,41.0743598937988,0,0,0,0,2/8/2015 6:19:26 AM,
110,0,431,4696.92307692308,4083.58974358974,4003.58974358974,4325.12820512821,4517.94871794872,4422.5641025641,4317.94871794872,4373.33333333333,5240,4069.74358974359,4216.92307692308,4257.4358974359,3962.05128205128,4051.79487179487,1663,1690,41.134,41.0743598937988,0,0,0,0,2/8/2015 6:19:26 AM,
111,0,452,4696.92307692308,4067.17948717949,4005.64102564103,4313.84615384615,4521.02564102564,4430.25641025641,4317.94871794872,4372.82051282051,5215.38461538462,4062.05128205128,4209.74358974359,4262.05128205128,3951.28205128205,4055.38461538462,1664,1689,41.141,41.0743598937988,0,0,0,0,2/8/2015 6:19:26 AM,
112,0,409,4710.76923076923,4076.41025641026,4005.64102564103,4321.53846153846,4549.74358974359,4436.41025641026,4317.94871794872,4378.46153846154,5209.23076923077,4058.97435897436,4219.48717948718,4256.41025641026,3963.07692307692,4097.94871794872,1663,1691,41.149,41.0743598937988,0,0,0,0,2/8/2015 6:19:26 AM,
113,0,441,4729.23076923077,4096.41025641026,4003.07692307692,4330.76923076923,4568.71794871795,4445.64102564103,4317.94871794872,4381.53846153846,5227.69230769231,4076.41025641026,4237.4358974359,4248.20512820513,3985.12820512821,4118.46153846154,1663,1691,41.156,41.0743598937988,0,0,0,0,2/8/2015 6:19:26 AM,
114,0,431,4709.23076923077,4093.84615384615,3994.35897435898,4324.61538461538,4549.23076923077,4460,4317.94871794872,4374.8717948718,5225.12820512821,4074.35897435898,4233.84615384615,4241.02564102564,3980.51282051282,4074.35897435898,1663,1692,41.164,41.0743598937988,0,0,0,0,2/8/2015 6:19:26 AM,
115,0,452,4671.79487179487,4076.41025641026,3989.74358974359,4315.38461538462,4520,4462.05128205128,4317.94871794872,4368.71794871795,5203.58974358974,4060,4219.48717948718,4231.28205128205,3966.66666666667,4032.82051282051,1664,1692,41.173,41.0743598937988,0,0,0,0,2/8/2015 6:19:26 AM,
116,0,409,4672.82051282051,4070.25641025641,3995.89743589744,4321.53846153846,4513.33333333333,4445.64102564103,4317.94871794872,4369.74358974359,5205.12820512821,4066.66666666667,4217.4358974359,4233.33333333333,3970.25641025641,4032.82051282051,1663,1693,41.18,41.0743598937988,0,0,0,0,2/8/2015 6:19:26 AM,
117,0,441,4695.38461538462,4084.61538461539,3998.97435897436,4330.76923076923,4540.51282051282,4438.97435897436,4317.94871794872,4373.33333333333,5214.8717948718,4069.23076923077,4215.38461538462,4246.66666666667,3965.64102564103,4040.51282051282,1665,1694,41.188,41.0743598937988,0,0,0,0,2/8/2015 6:19:26 AM,
118,0,431,4693.84615384615,4091.79487179487,4003.07692307692,4325.64102564103,4550.25641025641,4451.79487179487,4317.94871794872,4375.38461538462,5200.51282051282,4055.89743589744,4216.92307692308,4249.23076923077,3955.38461538462,4046.15384615385,1664,1693,41.196,41.0743598937988,0,0,0,0,2/8/2015 6:19:26 AM,
119,0,452,4689.74358974359,4082.5641025641,4007.17948717949,4326.66666666667,4521.53846153846,4443.58974358974,4317.94871794872,4369.74358974359,5184.61538461539,4063.58974358974,4231.28205128205,4240.51282051282,3966.15384615385,4077.4358974359,1665,1694,41.203,41.0743598937988,0,0,0,0,2/8/2015 6:19:26 AM,
120,0,409,4696.92307692308,4083.58974358974,3996.41025641026,4336.92307692308,4528.20512820513,4421.02564102564,4317.94871794872,4360.51282051282,5174.8717948718,4084.61538461539,4229.74358974359,4230.76923076923,3980,4108.20512820513,1665,1693,41.211,41.0743598937988,0,0,0,0,2/8/2015 6:19:26 AM,
121,0,441,4692.82051282051,4092.82051282051,3987.17948717949,4332.82051282051,4575.38461538462,4430.76923076923,4317.94871794872,4356.92307692308,5167.17948717949,4084.61538461539,4215.38461538462,4226.66666666667,3978.46153846154,4083.58974358974,1664,1694,41.219,41.0743598937988,0,0,0,0,2/8/2015 6:19:26 AM,
122,0,431,4674.8717948718,4087.17948717949,3998.97435897436,4323.07692307692,4575.38461538462,4446.66666666667,4317.94871794872,4356.92307692308,5163.07692307692,4071.79487179487,4217.4358974359,4234.8717948718,3969.23076923077,4047.17948717949,1665,1693,41.227,41.0743598937988,0,0,0,0,2/8/2015 6:19:26 AM,
123,0,452,4670.25641025641,4071.28205128205,4007.17948717949,4326.66666666667,4523.58974358974,4428.71794871795,4317.94871794872,4357.4358974359,5151.28205128205,4068.20512820513,4221.02564102564,4234.35897435897,3960.51282051282,4061.02564102564,1664,1695,41.235,41.0743598937988,0,0,0,0,2/8/2015 6:19:26 AM,
124,0,409,4682.05128205128,4064.61538461539,4000,4328.71794871795,4499.48717948718,4419.48717948718,4317.94871794872,4364.61538461538,5146.66666666667,4063.07692307692,4215.89743589744,4228.20512820513,3956.41025641026,4060,1665,1695,41.242,41.0743598937988,0,0,0,0,2/8/2015 6:19:26 AM,
125,0,441,4671.79487179487,4068.20512820513,4002.5641025641,4321.02564102564,4527.17948717949,4442.05128205128,4317.94871794872,4378.46153846154,5165.12820512821,4052.30769230769,4217.94871794872,4243.58974358974,3955.38461538462,4015.89743589744,1665,1694,41.25,41.0743598937988,0,0,0,0,2/8/2015 6:19:26 AM,
126,0,431,4655.89743589744,4072.30769230769,4006.66666666667,4322.05128205128,4565.64102564103,4445.64102564103,4317.94871794872,4383.07692307692,5181.02564102564,4057.94871794872,4219.48717948718,4253.33333333333,3956.92307692308,4033.33333333333,1664,1693,41.258,41.0743598937988,0,0,0,0,2/8/2015 6:19:26 AM,
127,0,452,4678.97435897436,4074.35897435898,4002.05128205128,4329.23076923077,4570.76923076923,4435.89743589744,4317.94871794872,4382.05128205128,5176.92307692308,4072.82051282051,4219.48717948718,4236.41025641026,3962.5641025641,4106.15384615385,1664,1693,41.266,41.0743598937988,0,0,0,0,2/8/2015 6:19:26 AM,
128,0,409,4711.79487179487,4081.53846153846,4004.61538461539,4328.20512820513,4540,4451.28205128205,4317.94871794872,4387.69230769231,5169.23076923077,4078.46153846154,4236.41025641026,4232.30769230769,3976.92307692308,4116.41025641026,1666,1693,41.274,41.0743598937988,0,0,0,0,2/8/2015 6:19:26 AM,
0,0,460,4711.28205128205,4097.94871794872,4014.35897435898,4335.89743589744,4523.58974358974,4465.12820512821,4317.94871794872,4387.17948717949,5158.46153846154,4078.46153846154,4253.33333333333,4253.84615384615,3990.25641025641,4076.92307692308,1665,1691,41.282,41.0743598937988,0,0,0,0,2/8/2015 6:19:26 AM,
1,0,442,4697.94871794872,4102.5641025641,4026.66666666667,4353.33333333333,4532.30769230769,4451.28205128205,4317.94871794872,4382.05128205128,5141.53846153846,4072.30769230769,4240.51282051282,4269.23076923077,3983.07692307692,4064.61538461539,1667,1693,41.29,41.0743598937988,0,0,0,0,2/8/2015 6:19:26 AM,
2,0,461,4699.48717948718,4092.30769230769,4033.84615384615,4350.25641025641,4547.69230769231,4440,4317.94871794872,4387.17948717949,5132.30769230769,4068.20512820513,4228.71794871795,4262.05128205128,3968.71794871795,4086.66666666667,1668,1691,41.298,41.0743598937988,0,0,0,0,2/8/2015 6:19:26 AM,
3,0,491,4706.15384615385,4087.17948717949,4018.97435897436,4335.38461538462,4575.38461538462,4448.71794871795,4317.94871794872,4394.35897435897,5137.4358974359,4081.53846153846,4247.17948717949,4249.74358974359,3977.4358974359,4110.76923076923,1667,1693,41.306,41.0743598937988,0,0,0,0,2/8/2015 6:19:26 AM,
4,0,484,4706.66666666667,4092.82051282051,4003.58974358974,4336.92307692308,4586.66666666667,4445.64102564103,4317.94871794872,4385.64102564103,5135.38461538462,4092.82051282051,4253.84615384615,4251.79487179487,3982.5641025641,4106.15384615385,1668,1693,41.313,41.0743598937988,0,0,0,0,2/8/2015 6:19:26 AM,
5,0,453,4698.46153846154,4097.94871794872,4015.38461538462,4346.66666666667,4560.51282051282,4427.69230769231,4317.94871794872,4370.25641025641,5113.33333333333,4086.66666666667,4231.28205128205,4258.97435897436,3969.23076923077,4083.07692307692,1667,1693,41.32,41.0743598937988,0,0,0,0,2/8/2015 6:19:26 AM,
6,0,482,4692.30769230769,4093.84615384615,4023.07692307692,4345.64102564103,4535.89743589744,4421.02564102564,4317.94871794872,4365.12820512821,5100,4082.05128205128,4230.25641025641,4251.28205128205,3977.94871794872,4077.94871794872,1668,1692,41.327,41.0743598937988,0,0,0,0,2/8/2015 6:19:26 AM,
7,0,0,4696.41025641026,4082.05128205128,4005.64102564103,4334.8717948718,4534.35897435897,4430.25641025641,4317.94871794872,4371.79487179487,5106.15384615385,4081.02564102564,4254.35897435897,4243.58974358974,3991.28205128205,4091.79487179487,1667,1692,41.335,41.0743598937988,0,0,0,0,2/8/2015 6:19:26 AM,
8,0,407,4696.92307692308,4082.05128205128,4004.61538461539,4331.79487179487,4547.69230769231,4441.53846153846,4317.94871794872,4379.48717948718,5117.94871794872,4082.05128205128,4255.89743589744,4246.15384615385,3984.61538461539,4116.92307692308,1667,1691,41.343,41.0743598937988,0,0,0,0,2/8/2015 6:19:26 AM,
9,0,427,4692.30769230769,4091.79487179487,4018.97435897436,4337.94871794872,4568.20512820513,4442.5641025641,4317.94871794872,4382.05128205128,5124.10256410256,4089.23076923077,4247.17948717949,4250.25641025641,3986.66666666667,4131.28205128205,1667,1690,41.352,41.0743598937988,0,0,0,0,2/8/2015 6:19:26 AM,
10,0,431,4698.97435897436,4089.74358974359,4014.35897435898,4340.51282051282,4567.17948717949,4430.76923076923,4317.94871794872,4380,5123.07692307692,4087.17948717949,4249.74358974359,4255.38461538462,3987.17948717949,4101.53846153846,1668,1691,41.36,41.0743598937988,0,0,0,0,2/8/2015 6:19:26 AM,
11,0,453,4705.12820512821,4077.4358974359,4006.15384615385,4337.4358974359,4540,4425.64102564103,4318.46153846154,4376.92307692308,5114.8717948718,4080,4244.61538461538,4257.4358974359,3975.89743589744,4082.05128205128,1667,1691,41.368,41.0743598937988,0,0,0,0,2/8/2015 6:19:26 AM,
12,0,409,4685.64102564103,4070.76923076923,4001.53846153846,4329.74358974359,4533.33333333333,4433.33333333333,4318.46153846154,4371.79487179487,5094.8717948718,4085.64102564103,4228.71794871795,4247.17948717949,3972.82051282051,4101.02564102564,1667,1693,41.375,41.0743598937988,0,0,0,0,2/8/2015 6:19:26 AM,
13,0,441,4669.23076923077,4076.41025641026,3993.33333333333,4326.15384615385,4541.53846153846,4427.69230769231,4317.94871794872,4372.30769230769,5071.79487179487,4081.53846153846,4232.30769230769,4238.97435897436,3975.38461538462,4106.15384615385,1666,1692,41.383,41.0743598937988,0,0,0,0,2/8/2015 6:19:26 AM,
14,0,431,4680.51282051282,4089.74358974359,4004.61538461539,4338.97435897436,4543.58974358974,4416.92307692308,4318.46153846154,4372.82051282051,5055.89743589744,4058.46153846154,4252.82051282051,4245.12820512821,3975.89743589744,4105.12820512821,1665,1693,41.391,41.0743598937988,0,0,0,0,2/8/2015 6:19:26 AM,
15,0,453,4686.66666666667,4088.20512820513,4026.15384615385,4353.84615384615,4548.71794871795,4424.10256410256,4318.46153846154,4371.28205128205,5053.84615384615,4061.53846153846,4253.84615384615,4261.02564102564,3976.92307692308,4106.15384615385,1666,1692,41.4,41.0743598937988,0,0,0,0,2/8/2015 6:19:26 AM,
16,0,0,4684.10256410256,4074.8717948718,4029.74358974359,4340,4548.71794871795,4428.71794871795,4315.38461538462,4375.89743589744,5061.53846153846,4085.12820512821,4237.4358974359,4268.20512820513,3972.82051282051,4106.15384615385,1666,1693,41.406,41.0743598937988,0,0,0,0,2/8/2015 6:19:26 AM,
17,0,0,4698.46153846154,4084.10256410256,4014.8717948718,4323.58974358974,4551.79487179487,4424.10256410256,4310.76923076923,4382.5641025641,5070.76923076923,4083.58974358974,4232.82051282051,4252.82051282051,3973.84615384615,4135.38461538462,1666,1694,41.413,41.0743598937988,0,0,0,0,2/8/2015 6:19:26 AM,
18,0,0,4701.53846153846,4099.48717948718,4004.10256410256,4332.30769230769,4561.02564102564,4428.20512820513,4310.25641025641,4392.82051282051,5067.69230769231,4073.33333333333,4233.84615384615,4240,3982.05128205128,4133.84615384615,1665,1693,41.421,41.0743598937988,0,0,0,0,2/8/2015 6:19:26 AM,
19,0,0,4682.05128205128,4079.48717948718,4014.8717948718,4342.05128205128,4543.07692307692,4425.64102564103,4312.30769230769,4397.94871794872,5050.25641025641,4076.41025641026,4235.38461538462,4257.4358974359,3978.46153846154,4082.05128205128,1665,1692,41.429,41.0743598937988,0,0,0,0,2/8/2015 6:19:26 AM,
20,0,0,4677.94871794872,4066.66666666667,4028.20512820513,4344.10256410256,4533.33333333333,4417.94871794872,4312.30769230769,4393.33333333333,5039.48717948718,4070.76923076923,4242.05128205128,4270.25641025641,3972.30769230769,4086.66666666667,1665,1692,41.438,41.0743598937988,0,0,0,0,2/8/2015 6:19:26 AM,
21,0,0,4691.79487179487,4085.12820512821,4015.89743589744,4336.41025641026,4565.12820512821,4428.71794871795,4312.82051282051,4388.20512820513,5037.4358974359,4065.12820512821,4240.51282051282,4256.41025641026,3972.30769230769,4146.66666666667,1665,1694,41.446,41.0743598937988,0,0,0,0,2/8/2015 6:19:26 AM,
22,0,0,4692.82051282051,4092.30769230769,4000,4327.69230769231,4578.46153846154,4433.84615384615,4314.8717948718,4390.25641025641,5042.5641025641,4081.02564102564,4229.23076923077,4239.48717948718,3973.84615384615,4155.38461538462,1664,1694,41.454,41.0743598937988,0,0,0,0,2/8/2015 6:19:26 AM,
23,0,0,4682.05128205128,4083.58974358974,4007.17948717949,4334.35897435897,4549.23076923077,4416.41025641026,4314.35897435897,4391.28205128205,5046.66666666667,4084.10256410256,4229.74358974359,4237.4358974359,3973.84615384615,4115.89743589744,1664,1695,41.461,41.4184074401855,0,0,0,0,2/8/2015 6:19:26 AM,
24,0,0,4672.82051282051,4072.30769230769,4008.71794871795,4333.33333333333,4524.10256410256,4406.66666666667,4312.30769230769,4385.64102564103,5028.71794871795,4065.64102564103,4234.35897435897,4235.38461538462,3965.64102564103,4095.89743589744,1664,1693,41.469,41.4184074401855,0,0,0,0,2/8/2015 6:19:26 AM,
25,0,0,4668.20512820513,4061.53846153846,3995.89743589744,4325.64102564103,4520,4412.82051282051,4312.82051282051,4389.23076923077,5014.8717948718,4065.64102564103,4234.35897435897,4237.94871794872,3959.48717948718,4109.23076923077,1664,1694,41.477,41.4184074401855,0,0,0,0,2/8/2015 6:19:26 AM,
26,0,0,4656.92307692308,4068.71794871795,4000.51282051282,4334.8717948718,4533.84615384615,4416.41025641026,4314.35897435897,4400,5036.41025641026,4076.41025641026,4239.48717948718,4247.17948717949,3971.79487179487,4109.23076923077,1663,1693,41.485,41.4184074401855,0,0,0,0,2/8/2015 6:19:26 AM,
27,0,0,4648.71794871795,4081.02564102564,4009.23076923077,4330.25641025641,4559.48717948718,4413.84615384615,4313.84615384615,4401.02564102564,5051.28205128205,4077.4358974359,4232.82051282051,4242.5641025641,3974.8717948718,4087.69230769231,1663,1693,41.493,41.4184074401855,0,0,0,0,2/8/2015 6:19:26 AM,
28,0,0,4672.30769230769,4071.79487179487,3999.48717948718,4315.89743589744,4556.92307692308,4409.74358974359,4313.84615384615,4394.35897435897,5033.84615384615,4082.5641025641,4223.58974358974,4233.84615384615,3968.20512820513,4102.05128205128,1664,1692,41.499,41.4184074401855,0,0,0,0,2/8/2015 6:19:26 AM,
29,0,0,4692.82051282051,4067.69230769231,3987.17948717949,4335.38461538462,4536.41025641026,4416.41025641026,4313.84615384615,4393.84615384615,5025.64102564103,4088.20512820513,4241.02564102564,4226.66666666667,3980.51282051282,4143.58974358974,1664,1692,41.508,41.4184074401855,0,0,0,0,2/8/2015 6:19:26 AM,
30,0,0,4671.79487179487,4081.02564102564,3990.25641025641,4355.38461538462,4546.15384615385,4425.64102564103,4313.84615384615,4393.33333333333,5021.53846153846,4083.07692307692,4251.28205128205,4219.48717948718,3978.46153846154,4148.20512820513,1663,1690,41.516,41.4184074401855,0,0,0,0,2/8/2015 6:19:26 AM,
31,0,0,4654.35897435897,4081.02564102564,4001.53846153846,4332.30769230769,4546.66666666667,4417.94871794872,4313.84615384615,4387.69230769231,4999.48717948718,4073.84615384615,4227.69230769231,4226.15384615385,3947.17948717949,4114.8717948718,1663,1690,41.523,41.4184074401855,0,0,0,0,2/8/2015 6:19:26 AM,
32,0,0,4664.61538461539,4071.28205128205,4002.5641025641,4306.15384615385,4533.33333333333,4414.8717948718,4313.84615384615,4391.79487179487,4996.41025641026,4065.12820512821,4215.89743589744,4237.4358974359,3945.12820512821,4090.76923076923,1663,1689,41.531,41.4184074401855,0,0,0,0,2/8/2015 6:19:26 AM,
33,0,0,4674.8717948718,4073.84615384615,3994.8717948718,4322.05128205128,4553.84615384615,4422.5641025641,4313.84615384615,4399.48717948718,5013.84615384615,4070.25641025641,4233.84615384615,4224.61538461538,3972.82051282051,4110.76923076923,1663,1692,41.539,41.4184074401855,0,0,0,0,2/8/2015 6:19:26 AM,
34,0,0,4674.35897435897,4082.5641025641,3987.69230769231,4349.23076923077,4558.97435897436,4431.79487179487,4313.84615384615,4401.53846153846,5016.41025641026,4089.23076923077,4239.48717948718,4207.17948717949,3977.94871794872,4147.69230769231,1664,1691,41.546,41.4184074401855,0,0,0,0,2/8/2015 6:19:26 AM,
35,0,0,4674.8717948718,4084.10256410256,3991.28205128205,4350.76923076923,4533.84615384615,4437.4358974359,4313.84615384615,4403.58974358974,5003.07692307692,4091.28205128205,4231.28205128205,4218.97435897436,3971.28205128205,4156.41025641026,1663,1692,41.554,41.4184074401855,0,0,0,0,2/8/2015 6:19:26 AM,
36,0,0,4676.41025641026,4082.05128205128,4002.05128205128,4337.94871794872,4549.23076923077,4425.12820512821,4313.84615384615,4403.58974358974,4991.79487179487,4075.38461538462,4233.33333333333,4234.8717948718,3970.76923076923,4130.76923076923,1663,1695,41.562,41.4184074401855,0,0,0,0,2/8/2015 6:19:26 AM,
