COUNTER,INTERPOLATED,RAW_CQ,AF3,F7,F3, FC5, T7, P7, O1, O2,P8, T8, FC6, F4,F8, AF4,GYROX, GYROY, TIMESTAMP, ES_TIMESTAMPFUNC_ID, FUNC_VALUE, MARKER, SYNC_SIGNAL,DateTime
128,0,409,4464.10256410256,4043.07692307692,3999.48717948718,4288.71794871795,4549.23076923077,4406.15384615385,4308.20512820513,4397.4358974359,4635.89743589744,4117.4358974359,4294.35897435897,4216.41025641026,4007.69230769231,4197.94871794872,1665,1691,45.034,44.9292373657227,0,0,0,0,2/8/2015 6:21:01 AM,
0,0,449,4460.51282051282,4036.92307692308,3988.20512820513,4275.38461538462,4572.30769230769,4401.53846153846,4309.23076923077,4397.94871794872,4641.02564102564,4125.12820512821,4268.71794871795,4217.94871794872,3985.12820512821,4133.33333333333,1664,1692,45.042,44.9292373657227,0,0,0,0,2/8/2015 6:21:01 AM,
1,0,445,4459.48717948718,4046.66666666667,3982.5641025641,4282.5641025641,4570.25641025641,4410.25641025641,4315.38461538462,4400,4649.74358974359,4137.4358974359,4257.94871794872,4215.89743589744,3987.69230769231,4114.8717948718,1663,1694,45.05,44.9292373657227,0,0,0,0,2/8/2015 6:21:01 AM,
2,0,465,4455.38461538462,4041.53846153846,3987.69230769231,4275.89743589744,4549.23076923077,4416.41025641026,4320.51282051282,4402.05128205128,4650.76923076923,4134.35897435897,4276.41025641026,4203.58974358974,3999.48717948718,4168.71794871795,1664,1694,45.057,44.9292373657227,0,0,0,0,2/8/2015 6:21:01 AM,
3,0,493,4455.89743589744,4030.25641025641,3989.74358974359,4263.07692307692,4530.76923076923,4409.23076923077,4317.94871794872,4398.97435897436,4647.17948717949,4123.58974358974,4287.17948717949,4195.38461538462,3992.82051282051,4183.58974358974,1664,1694,45.065,45.0543441772461,0,0,0,0,2/8/2015 6:21:01 AM,
4,0,475,4471.28205128205,4037.94871794872,3989.23076923077,4275.89743589744,4530.76923076923,4407.17948717949,4317.94871794872,4397.94871794872,4641.02564102564,4120,4271.28205128205,4205.64102564103,3986.15384615385,4159.48717948718,1664,1693,45.073,45.0543441772461,0,0,0,0,2/8/2015 6:21:01 AM,
5,0,463,4478.46153846154,4045.64102564103,3989.74358974359,4288.71794871795,4553.33333333333,4417.94871794872,4320.51282051282,4402.5641025641,4638.97435897436,4125.64102564103,4262.5641025641,4210.76923076923,3990.76923076923,4167.69230769231,1663,1694,45.081,45.0543441772461,0,0,0,0,2/8/2015 6:21:01 AM,
6,0,480,4471.28205128205,4045.12820512821,3992.30769230769,4284.10256410256,4561.53846153846,4423.07692307692,4320,4403.58974358974,4644.61538461538,4136.92307692308,4276.92307692308,4201.02564102564,3988.71794871795,4186.66666666667,1664,1693,45.089,45.0543441772461,0,0,0,0,2/8/2015 6:21:01 AM,
7,0,0,4474.35897435897,4049.23076923077,3995.38461538462,4281.02564102564,4550.25641025641,4420.51282051282,4320,4398.97435897436,4647.69230769231,4146.15384615385,4283.07692307692,4197.4358974359,3991.79487179487,4177.4358974359,1663,1694,45.097,45.085620880127,0,0,0,0,2/8/2015 6:21:01 AM,
8,0,410,4475.89743589744,4051.28205128205,3992.82051282051,4281.53846153846,4564.61538461538,4420.51282051282,4319.48717948718,4396.92307692308,4645.12820512821,4146.15384615385,4275.38461538462,4201.53846153846,4012.30769230769,4190.25641025641,1664,1693,45.104,45.085620880127,0,0,0,0,2/8/2015 6:21:01 AM,
9,0,426,4465.12820512821,4043.07692307692,3987.17948717949,4271.79487179487,4566.66666666667,4415.38461538462,4320,4396.92307692308,4638.97435897436,4137.4358974359,4272.30769230769,4196.41025641026,4020,4216.41025641026,1663,1693,45.112,45.085620880127,0,0,0,0,2/8/2015 6:21:01 AM,
10,0,425,4453.84615384615,4031.79487179487,3990.25641025641,4265.12820512821,4525.12820512821,4403.58974358974,4320.51282051282,4401.02564102564,4637.94871794872,4127.69230769231,4264.61538461538,4197.4358974359,3997.4358974359,4171.28205128205,1663,1694,45.121,45.085620880127,0,0,0,0,2/8/2015 6:21:01 AM,
11,0,456,4461.02564102564,4036.92307692308,3991.79487179487,4272.82051282051,4527.69230769231,4406.15384615385,4316.92307692308,4413.33333333333,4650.76923076923,4131.79487179487,4257.94871794872,4210.76923076923,3983.07692307692,4112.30769230769,1663,1692,45.129,45.085620880127,0,0,0,0,2/8/2015 6:21:01 AM,
12,0,409,4467.69230769231,4048.20512820513,3985.64102564103,4283.07692307692,4576.41025641026,4417.94871794872,4311.79487179487,4421.53846153846,4655.89743589744,4144.61538461538,4266.15384615385,4205.64102564103,3992.82051282051,4150.25641025641,1663,1693,45.137,45.085620880127,0,0,0,0,2/8/2015 6:21:01 AM,
13,0,437,4457.94871794872,4047.17948717949,3993.33333333333,4280,4571.28205128205,4414.35897435897,4311.79487179487,4418.97435897436,4645.12820512821,4144.61538461538,4272.30769230769,4197.4358974359,3997.94871794872,4199.48717948718,1663,1692,45.146,45.085620880127,0,0,0,0,2/8/2015 6:21:01 AM,
14,0,425,4466.15384615385,4042.05128205128,4006.15384615385,4271.28205128205,4536.41025641026,4414.8717948718,4313.33333333333,4423.07692307692,4649.23076923077,4132.82051282051,4273.33333333333,4207.69230769231,3999.48717948718,4181.53846153846,1663,1692,45.151,45.085620880127,0,0,0,0,2/8/2015 6:21:01 AM,
15,0,456,4478.46153846154,4042.05128205128,3997.94871794872,4263.07692307692,4531.28205128205,4426.15384615385,4312.82051282051,4432.82051282051,4664.10256410256,4122.05128205128,4268.20512820513,4210.25641025641,3998.97435897436,4167.17948717949,1663,1691,45.159,45.085620880127,0,0,0,0,2/8/2015 6:21:01 AM,
16,0,0,4462.05128205128,4043.58974358974,3986.15384615385,4262.5641025641,4541.02564102564,4429.74358974359,4313.33333333333,4431.79487179487,4661.02564102564,4126.15384615385,4256.92307692308,4198.97435897436,3988.71794871795,4160,1662,1691,45.167,45.085620880127,0,0,0,0,2/8/2015 6:21:01 AM,
17,0,0,4466.66666666667,4054.8717948718,3996.92307692308,4274.8717948718,4560,4427.69230769231,4313.33333333333,4429.23076923077,4652.30769230769,4135.89743589744,4262.5641025641,4199.48717948718,3990.76923076923,4153.84615384615,1662,1691,45.175,45.085620880127,0,0,0,0,2/8/2015 6:21:01 AM,
18,0,0,4511.79487179487,4069.74358974359,4003.07692307692,4276.92307692308,4571.28205128205,4423.07692307692,4311.79487179487,4433.33333333333,4657.4358974359,4132.82051282051,4280,4204.61538461538,4007.69230769231,4180,1662,1692,45.183,45.085620880127,0,0,0,0,2/8/2015 6:21:01 AM,
19,0,0,4514.8717948718,4067.69230769231,3993.84615384615,4264.61538461538,4544.61538461538,4415.38461538462,4312.30769230769,4433.84615384615,4655.38461538462,4122.5641025641,4276.92307692308,4207.69230769231,4000,4195.38461538462,1663,1692,45.19,45.1794509887695,0,0,0,0,2/8/2015 6:21:01 AM,
20,0,0,4485.12820512821,4062.05128205128,3998.46153846154,4262.5641025641,4512.82051282051,4411.79487179487,4311.79487179487,4429.23076923077,4640,4120.51282051282,4258.46153846154,4213.33333333333,3971.79487179487,4177.4358974359,1661,1693,45.198,45.1794509887695,0,0,0,0,2/8/2015 6:21:01 AM,
21,0,0,4501.53846153846,4062.05128205128,4010.76923076923,4269.23076923077,4522.5641025641,4415.89743589744,4308.71794871795,4430.25641025641,4633.33333333333,4113.33333333333,4250.25641025641,4210.76923076923,3967.69230769231,4165.64102564103,1663,1695,45.208,45.1794509887695,0,0,0,0,2/8/2015 6:21:01 AM,
22,0,0,4506.66666666667,4063.07692307692,4005.12820512821,4266.15384615385,4537.94871794872,4421.02564102564,4309.23076923077,4437.94871794872,4643.58974358974,4107.17948717949,4249.23076923077,4195.89743589744,3978.46153846154,4174.8717948718,1663,1693,45.215,45.1794509887695,0,0,0,0,2/8/2015 6:21:01 AM,
23,0,0,4474.8717948718,4068.20512820513,3995.89743589744,4259.48717948718,4538.97435897436,4424.61538461538,4313.33333333333,4441.02564102564,4651.28205128205,4116.41025641026,4248.20512820513,4189.74358974359,3978.97435897436,4175.89743589744,1662,1693,45.224,45.1794509887695,0,0,0,0,2/8/2015 6:21:01 AM,
24,0,0,4474.35897435897,4067.69230769231,4006.66666666667,4266.66666666667,4568.20512820513,4427.69230769231,4313.84615384615,4446.66666666667,4649.23076923077,4127.17948717949,4245.12820512821,4196.41025641026,3974.35897435898,4167.69230769231,1663,1692,45.231,45.1794509887695,0,0,0,0,2/8/2015 6:21:01 AM,
25,0,0,4493.84615384615,4057.94871794872,4016.41025641026,4267.17948717949,4604.61538461538,4430.76923076923,4315.38461538462,4454.8717948718,4647.17948717949,4132.82051282051,4246.66666666667,4201.53846153846,3973.84615384615,4174.35897435897,1661,1692,45.238,45.1794509887695,0,0,0,0,2/8/2015 6:21:01 AM,
26,0,0,4489.74358974359,4056.41025641026,4008.20512820513,4252.30769230769,4578.97435897436,4430.25641025641,4320,4452.82051282051,4649.74358974359,4139.48717948718,4249.74358974359,4200.51282051282,3975.89743589744,4188.20512820513,1662,1691,45.246,45.1794509887695,0,0,0,0,2/8/2015 6:21:01 AM,
27,0,0,4482.05128205128,4062.5641025641,4001.53846153846,4250.25641025641,4527.69230769231,4423.58974358974,4320.51282051282,4446.15384615385,4651.28205128205,4141.02564102564,4248.20512820513,4198.46153846154,3971.28205128205,4186.66666666667,1662,1691,45.254,45.1794509887695,0,0,0,0,2/8/2015 6:21:01 AM,
28,0,0,4489.23076923077,4056.92307692308,4006.66666666667,4256.92307692308,4533.84615384615,4420.51282051282,4317.94871794872,4445.64102564103,4644.10256410256,4135.89743589744,4248.71794871795,4201.02564102564,3964.61538461539,4173.33333333333,1663,1691,45.262,45.1794509887695,0,0,0,0,2/8/2015 6:21:01 AM,
29,0,0,4487.17948717949,4044.10256410256,4012.30769230769,4238.97435897436,4562.05128205128,4417.94871794872,4318.97435897436,4449.23076923077,4639.48717948718,4136.41025641026,4251.28205128205,4200,3973.33333333333,4154.35897435897,1661,1692,45.27,45.1794509887695,0,0,0,0,2/8/2015 6:21:01 AM,
30,0,0,4488.20512820513,4041.53846153846,4011.79487179487,4226.66666666667,4562.5641025641,4415.89743589744,4320.51282051282,4455.38461538462,4650.25641025641,4136.92307692308,4248.20512820513,4201.02564102564,3986.15384615385,4155.38461538462,1663,1690,45.277,45.1794509887695,0,0,0,0,2/8/2015 6:21:01 AM,
31,0,0,4499.48717948718,4050.25641025641,4014.35897435898,4243.07692307692,4568.20512820513,4429.74358974359,4319.48717948718,4463.58974358974,4662.5641025641,4135.38461538462,4245.64102564103,4211.79487179487,3975.38461538462,4185.64102564103,1663,1690,45.285,45.1794509887695,0,0,0,0,2/8/2015 6:21:01 AM,
32,0,0,4509.23076923077,4056.41025641026,4015.89743589744,4245.64102564103,4576.92307692308,4444.61538461538,4319.48717948718,4457.94871794872,4654.8717948718,4136.41025641026,4248.20512820513,4217.94871794872,3960.51282051282,4201.02564102564,1663,1692,45.293,45.1794509887695,0,0,0,0,2/8/2015 6:21:01 AM,
33,0,0,4513.84615384615,4049.74358974359,4012.30769230769,4232.82051282051,4561.02564102564,4443.58974358974,4320,4448.71794871795,4643.58974358974,4137.4358974359,4249.74358974359,4213.33333333333,3966.66666666667,4192.30769230769,1664,1691,45.301,45.1794509887695,0,0,0,0,2/8/2015 6:21:01 AM,
34,0,0,4509.74358974359,4043.07692307692,4004.61538461539,4226.15384615385,4553.84615384615,4441.53846153846,4320,4454.8717948718,4651.79487179487,4137.4358974359,4242.05128205128,4202.05128205128,3970.76923076923,4174.35897435897,1663,1693,45.31,45.1794509887695,0,0,0,0,2/8/2015 6:21:01 AM,
35,0,0,4504.61538461538,4043.58974358974,3998.97435897436,4215.89743589744,4570.76923076923,4441.53846153846,4319.48717948718,4460.51282051282,4660,4133.84615384615,4230.25641025641,4197.4358974359,3960.51282051282,4162.5641025641,1664,1691,45.316,45.304557800293,0,0,0,0,2/8/2015 6:21:01 AM,
36,0,0,4502.05128205128,4040.51282051282,3997.4358974359,4210.76923076923,4565.12820512821,4430.25641025641,4320,4457.94871794872,4651.28205128205,4127.69230769231,4234.35897435897,4196.41025641026,3955.89743589744,4183.07692307692,1663,1692,45.325,45.304557800293,0,0,0,0,2/8/2015 6:21:01 AM,
37,0,0,4507.17948717949,4036.41025641026,4002.05128205128,4216.41025641026,4548.20512820513,4422.5641025641,4320,4455.89743589744,4646.15384615385,4128.20512820513,4248.71794871795,4196.92307692308,3962.5641025641,4206.66666666667,1664,1691,45.332,45.304557800293,0,0,0,0,2/8/2015 6:21:01 AM,
38,0,0,4521.02564102564,4043.07692307692,4009.74358974359,4209.74358974359,4568.20512820513,4436.92307692308,4317.94871794872,4457.94871794872,4650.76923076923,4131.79487179487,4243.58974358974,4205.64102564103,3971.79487179487,4195.38461538462,1663,1691,45.34,45.304557800293,0,0,0,0,2/8/2015 6:21:01 AM,
39,0,0,4527.17948717949,4052.30769230769,4013.84615384615,4198.97435897436,4585.64102564103,4447.17948717949,4317.4358974359,4454.8717948718,4647.69230769231,4126.15384615385,4231.79487179487,4213.84615384615,3975.38461538462,4171.28205128205,1664,1692,45.348,45.304557800293,0,0,0,0,2/8/2015 6:21:01 AM,
40,0,0,4521.53846153846,4052.30769230769,4021.53846153846,4204.61538461538,4566.66666666667,4432.30769230769,4318.97435897436,4452.82051282051,4646.15384615385,4125.64102564103,4235.89743589744,4218.97435897436,3966.15384615385,4172.30769230769,1664,1691,45.356,45.304557800293,0,0,0,0,2/8/2015 6:21:01 AM,
41,0,0,4523.58974358974,4048.20512820513,4021.53846153846,4201.02564102564,4563.58974358974,4424.61538461538,4318.46153846154,4455.38461538462,4656.41025641026,4137.94871794872,4248.20512820513,4212.30769230769,3957.4358974359,4192.82051282051,1664,1692,45.362,45.304557800293,0,0,0,0,2/8/2015 6:21:01 AM,
42,0,0,4523.07692307692,4038.46153846154,4010.25641025641,4189.23076923077,4574.35897435897,4439.48717948718,4318.46153846154,4451.79487179487,4657.94871794872,4143.07692307692,4248.71794871795,4203.07692307692,3960.51282051282,4190.25641025641,1664,1693,45.371,45.304557800293,0,0,0,0,2/8/2015 6:21:01 AM,
43,0,0,4515.38461538462,4034.35897435898,4019.48717948718,4185.64102564103,4558.97435897436,4447.17948717949,4318.97435897436,4447.17948717949,4649.74358974359,4136.41025641026,4238.46153846154,4209.23076923077,3961.02564102564,4162.5641025641,1665,1695,45.379,45.304557800293,0,0,0,0,2/8/2015 6:21:01 AM,
44,0,0,4518.46153846154,4036.92307692308,4035.38461538462,4177.94871794872,4550.25641025641,4440,4315.89743589744,4444.61538461538,4647.69230769231,4135.38461538462,4231.79487179487,4220,3954.8717948718,4178.97435897436,1665,1693,45.386,45.304557800293,0,0,0,0,2/8/2015 6:21:01 AM,
45,0,0,4509.23076923077,4022.5641025641,4018.46153846154,4173.84615384615,4565.64102564103,4441.02564102564,4312.82051282051,4443.07692307692,4649.23076923077,4143.07692307692,4232.82051282051,4209.74358974359,3956.92307692308,4207.17948717949,1663,1695,45.394,45.304557800293,0,0,0,0,2/8/2015 6:21:01 AM,
46,0,0,4507.17948717949,3994.35897435898,3998.97435897436,4180,4570.25641025641,4445.12820512821,4310.76923076923,4442.05128205128,4646.15384615385,4133.84615384615,4234.35897435897,4198.46153846154,3957.94871794872,4175.38461538462,1665,1693,45.402,45.304557800293,0,0,0,0,2/8/2015 6:21:01 AM,
47,0,0,4536.41025641026,3974.35897435898,4013.84615384615,4174.35897435897,4581.53846153846,4440.51282051282,4303.58974358974,4444.61538461538,4644.61538461538,4118.97435897436,4226.66666666667,4208.20512820513,3946.15384615385,4169.23076923077,1665,1694,45.409,45.304557800293,0,0,0,0,2/8/2015 6:21:01 AM,
48,0,0,4542.5641025641,3972.30769230769,4023.07692307692,4165.64102564103,4606.15384615385,4443.58974358974,4300.51282051282,4448.71794871795,4653.84615384615,4131.79487179487,4218.46153846154,4205.12820512821,3942.5641025641,4224.61538461538,1665,1693,45.417,45.304557800293,0,0,0,0,2/8/2015 6:21:01 AM,
49,0,0,4520.51282051282,3980,4004.61538461539,4164.61538461538,4593.84615384615,4451.28205128205,4307.17948717949,4446.66666666667,4657.4358974359,4149.23076923077,4215.89743589744,4186.15384615385,3948.71794871795,4223.58974358974,1665,1693,45.425,45.304557800293,0,0,0,0,2/8/2015 6:21:01 AM,
50,0,0,4515.38461538462,3989.23076923077,3998.97435897436,4157.4358974359,4567.17948717949,4451.28205128205,4310.25641025641,4443.07692307692,4650.25641025641,4140.51282051282,4217.4358974359,4187.69230769231,3951.79487179487,4173.33333333333,1665,1693,45.433,45.304557800293,0,0,0,0,2/8/2015 6:21:01 AM,
51,0,0,4517.94871794872,3987.17948717949,4015.89743589744,4147.17948717949,4566.66666666667,4444.61538461538,4306.15384615385,4451.28205128205,4653.33333333333,4133.84615384615,4217.4358974359,4202.5641025641,3953.84615384615,4158.46153846154,1665,1692,45.441,45.4296646118164,0,0,0,0,2/8/2015 6:21:01 AM,
52,0,0,4510.76923076923,3976.41025641026,4024.61538461539,4147.17948717949,4568.20512820513,4441.53846153846,4310.76923076923,4460.51282051282,4663.58974358974,4140,4207.69230769231,4207.69230769231,3946.66666666667,4174.35897435897,1665,1693,45.448,45.4296646118164,0,0,0,0,2/8/2015 6:21:01 AM,
53,0,0,4515.38461538462,3972.82051282051,4018.46153846154,4150.25641025641,4573.84615384615,4444.10256410256,4320,4456.92307692308,4660.51282051282,4140.51282051282,4209.23076923077,4198.97435897436,3937.4358974359,4190.76923076923,1665,1692,45.456,45.4296646118164,0,0,0,0,2/8/2015 6:21:01 AM,
54,0,0,4523.58974358974,3974.35897435898,4013.84615384615,4149.23076923077,4587.17948717949,4444.10256410256,4318.97435897436,4450.76923076923,4654.35897435897,4143.07692307692,4214.8717948718,4189.23076923077,3947.17948717949,4185.64102564103,1664,1692,45.464,45.4296646118164,0,0,0,0,2/8/2015 6:21:01 AM,
55,0,0,4517.94871794872,3973.33333333333,4013.84615384615,4140.51282051282,4580,4438.97435897436,4312.30769230769,4456.41025641026,4657.94871794872,4143.58974358974,4206.66666666667,4195.38461538462,3955.89743589744,4170.25641025641,1664,1693,45.472,45.4296646118164,0,0,0,0,2/8/2015 6:21:01 AM,
56,0,0,4523.58974358974,3973.84615384615,4021.02564102564,4132.82051282051,4556.41025641026,4437.4358974359,4312.82051282051,4462.05128205128,4660.51282051282,4131.79487179487,4198.46153846154,4213.84615384615,3940.51282051282,4174.8717948718,1664,1693,45.48,45.4296646118164,0,0,0,0,2/8/2015 6:21:01 AM,
57,0,0,4553.33333333333,3984.61538461539,4027.69230769231,4142.05128205128,4547.69230769231,4443.58974358974,4314.35897435897,4461.53846153846,4663.58974358974,4137.4358974359,4203.07692307692,4220.51282051282,3937.4358974359,4193.84615384615,1664,1693,45.488,45.4296646118164,0,0,0,0,2/8/2015 6:21:01 AM,
58,0,0,4574.8717948718,3998.97435897436,4029.23076923077,4155.38461538462,4564.61538461538,4443.07692307692,4312.82051282051,4460,4664.61538461539,4154.35897435897,4204.10256410256,4220.51282051282,3961.53846153846,4206.66666666667,1665,1692,45.495,45.4296646118164,0,0,0,0,2/8/2015 6:21:01 AM,
59,0,0,4569.74358974359,4005.12820512821,4038.46153846154,4154.35897435897,4570.25641025641,4432.30769230769,4311.79487179487,4458.97435897436,4658.46153846154,4146.66666666667,4198.97435897436,4231.79487179487,3969.74358974359,4231.79487179487,1664,1693,45.503,45.4296646118164,0,0,0,0,2/8/2015 6:21:01 AM,
60,0,0,4571.79487179487,4005.12820512821,4047.69230769231,4142.5641025641,4556.41025641026,4426.15384615385,4311.79487179487,4458.46153846154,4654.8717948718,4132.30769230769,4198.46153846154,4231.79487179487,3958.46153846154,4265.12820512821,1664,1693,45.511,45.4296646118164,0,0,0,0,2/8/2015 6:21:01 AM,
61,0,0,4596.41025641026,4006.15384615385,4044.10256410256,4136.41025641026,4562.05128205128,4427.69230769231,4311.79487179487,4460.51282051282,4654.8717948718,4137.4358974359,4202.05128205128,4228.71794871795,3964.10256410256,4271.28205128205,1663,1691,45.519,45.4296646118164,0,0,0,0,2/8/2015 6:21:01 AM,
62,0,0,4610.76923076923,4015.38461538462,4053.33333333333,4142.5641025641,4577.94871794872,4431.28205128205,4313.33333333333,4462.05128205128,4650.25641025641,4142.05128205128,4205.64102564103,4242.5641025641,3979.48717948718,4267.17948717949,1664,1692,45.527,45.4296646118164,0,0,0,0,2/8/2015 6:21:01 AM,
63,0,0,4611.79487179487,4023.58974358974,4069.23076923077,4136.92307692308,4574.8717948718,4434.8717948718,4312.82051282051,4461.53846153846,4646.66666666667,4137.94871794872,4197.4358974359,4251.79487179487,3969.23076923077,4264.10256410256,1664,1690,45.534,45.4296646118164,0,0,0,0,2/8/2015 6:21:01 AM,
64,0,449,4624.61538461538,4015.38461538462,4061.53846153846,4121.53846153846,4567.17948717949,4428.20512820513,4312.82051282051,4460.51282051282,4649.23076923077,4139.48717948718,4180.51282051282,4248.71794871795,3952.82051282051,4279.48717948718,1663,1692,45.543,45.4296646118164,0,0,0,0,2/8/2015 6:21:01 AM,
65,0,445,4644.10256410256,4003.07692307692,4054.8717948718,4121.53846153846,4562.05128205128,4419.48717948718,4313.33333333333,4460,4651.28205128205,4141.53846153846,4178.97435897436,4247.69230769231,3962.05128205128,4322.5641025641,1664,1690,45.551,45.4296646118164,0,0,0,0,2/8/2015 6:21:01 AM,
66,0,465,4650.25641025641,4009.23076923077,4058.46153846154,4124.61538461538,4544.10256410256,4423.07692307692,4314.35897435897,4456.92307692308,4645.64102564103,4134.8717948718,4185.64102564103,4248.20512820513,3967.69230769231,4331.28205128205,1663,1692,45.559,45.4296646118164,0,0,0,0,2/8/2015 6:21:01 AM,
67,0,493,4645.12820512821,4024.61538461539,4059.48717948718,4116.92307692308,4527.69230769231,4430.25641025641,4313.84615384615,4457.4358974359,4642.05128205128,4124.10256410256,4184.10256410256,4254.8717948718,3961.53846153846,4303.07692307692,1664,1691,45.567,45.5547752380371,0,0,0,0,2/8/2015 6:21:01 AM,
68,0,475,4654.8717948718,4027.69230769231,4076.41025641026,4121.53846153846,4544.10256410256,4427.69230769231,4311.79487179487,4462.5641025641,4648.20512820513,4115.89743589744,4183.07692307692,4266.15384615385,3965.64102564103,4327.69230769231,1664,1691,45.575,45.5547752380371,0,0,0,0,2/8/2015 6:21:01 AM,
69,0,463,4691.28205128205,4030.25641025641,4086.66666666667,4128.71794871795,4593.84615384615,4428.20512820513,4310.76923076923,4464.61538461538,4651.79487179487,4125.64102564103,4188.20512820513,4265.12820512821,3975.38461538462,4386.66666666667,1665,1692,45.582,45.5547752380371,0,0,0,0,2/8/2015 6:21:01 AM,
70,0,480,4699.48717948718,4032.30769230769,4076.41025641026,4115.38461538462,4621.02564102564,4433.84615384615,4312.82051282051,4462.5641025641,4648.20512820513,4137.4358974359,4187.69230769231,4264.61538461538,3975.89743589744,4378.46153846154,1664,1691,45.59,45.5547752380371,0,0,0,0,2/8/2015 6:21:01 AM,
71,0,0,4657.94871794872,4013.33333333333,4073.84615384615,4103.07692307692,4582.5641025641,4424.61538461538,4313.84615384615,4460,4645.12820512821,4133.84615384615,4175.38461538462,4268.71794871795,3975.38461538462,4334.8717948718,1664,1692,45.597,45.586051940918,0,0,0,0,2/8/2015 6:21:01 AM,
72,0,410,4650.76923076923,3998.97435897436,4067.17948717949,4103.07692307692,4541.53846153846,4409.23076923077,4312.30769230769,4459.48717948718,4643.07692307692,4131.28205128205,4167.69230769231,4255.89743589744,3974.35897435898,4336.92307692308,1664,1692,45.605,45.586051940918,0,0,0,0,2/8/2015 6:21:01 AM,
73,0,426,4678.97435897436,4005.64102564103,4047.17948717949,4095.38461538462,4555.38461538462,4406.15384615385,4311.28205128205,4455.89743589744,4640,4130.25641025641,4172.30769230769,4240.51282051282,3966.15384615385,4355.38461538462,1664,1692,45.613,45.586051940918,0,0,0,0,2/8/2015 6:21:01 AM,
74,0,427,4653.84615384615,4003.07692307692,4047.17948717949,4085.64102564103,4575.89743589744,4411.79487179487,4312.30769230769,4451.28205128205,4640,4122.5641025641,4167.17948717949,4244.10256410256,3957.4358974359,4326.66666666667,1664,1691,45.62,45.586051940918,0,0,0,0,2/8/2015 6:21:01 AM,
75,0,456,4609.23076923077,3986.66666666667,4054.35897435898,4085.12820512821,4560,4422.05128205128,4312.30769230769,4455.89743589744,4643.58974358974,4124.10256410256,4156.41025641026,4248.20512820513,3955.38461538462,4278.46153846154,1663,1694,45.629,45.586051940918,0,0,0,0,2/8/2015 6:21:01 AM,
76,0,409,4618.97435897436,3980,4038.46153846154,4075.38461538462,4545.64102564103,4429.23076923077,4309.23076923077,4457.94871794872,4647.69230769231,4133.84615384615,4164.61538461538,4238.97435897436,3956.92307692308,4283.07692307692,1664,1692,45.637,45.586051940918,0,0,0,0,2/8/2015 6:21:01 AM,
77,0,437,4621.02564102564,3975.89743589744,4026.66666666667,4062.5641025641,4569.74358974359,4428.20512820513,4311.28205128205,4445.64102564103,4646.15384615385,4138.97435897436,4170.76923076923,4226.15384615385,3951.28205128205,4307.69230769231,1662,1693,45.645,45.586051940918,0,0,0,0,2/8/2015 6:21:01 AM,
78,0,427,4588.20512820513,3972.30769230769,4025.64102564103,4071.79487179487,4595.38461538462,4426.15384615385,4315.38461538462,4442.5641025641,4640,4143.07692307692,4154.8717948718,4218.46153846154,3942.05128205128,4273.84615384615,1664,1694,45.653,45.586051940918,0,0,0,0,2/8/2015 6:21:01 AM,
79,0,456,4567.69230769231,3976.41025641026,4022.5641025641,4084.61538461539,4580,4428.71794871795,4315.38461538462,4457.94871794872,4641.53846153846,4144.10256410256,4149.74358974359,4215.89743589744,3942.05128205128,4231.28205128205,1664,1694,45.661,45.6486053466797,0,0,0,0,2/8/2015 6:21:01 AM,
80,0,409,4559.48717948718,3973.33333333333,4018.97435897436,4070.25641025641,4556.92307692308,4429.74358974359,4315.38461538462,4458.46153846154,4649.74358974359,4135.38461538462,4156.41025641026,4217.4358974359,3942.5641025641,4225.12820512821,1663,1695,45.668,45.6486053466797,0,0,0,0,2/8/2015 6:21:01 AM,
81,0,437,4545.64102564103,3963.07692307692,4012.30769230769,4053.33333333333,4549.74358974359,4433.84615384615,4318.97435897436,4444.10256410256,4649.74358974359,4127.69230769231,4146.15384615385,4213.84615384615,3925.64102564103,4201.53846153846,1664,1693,45.676,45.6486053466797,0,0,0,0,2/8/2015 6:21:01 AM,
82,0,427,4522.05128205128,3952.82051282051,4014.35897435898,4058.97435897436,4542.5641025641,4444.10256410256,4320.51282051282,4443.58974358974,4645.12820512821,4124.61538461538,4130.25641025641,4204.61538461538,3906.15384615385,4165.12820512821,1664,1694,45.684,45.6486053466797,0,0,0,0,2/8/2015 6:21:01 AM,
83,0,456,4514.35897435897,3948.20512820513,4020.51282051282,4058.97435897436,4542.05128205128,4447.69230769231,4317.4358974359,4454.8717948718,4646.15384615385,4121.02564102564,4130.76923076923,4200,3906.66666666667,4158.97435897436,1665,1693,45.692,45.6798820495605,0,0,0,0,2/8/2015 6:21:01 AM,
84,0,409,4528.20512820513,3943.58974358974,4012.30769230769,4046.15384615385,4551.28205128205,4440.51282051282,4314.8717948718,4456.92307692308,4650.25641025641,4125.12820512821,4135.38461538462,4198.97435897436,3913.33333333333,4168.20512820513,1665,1693,45.7,45.6798820495605,0,0,0,0,2/8/2015 6:21:01 AM,
85,0,437,4541.02564102564,3940.51282051282,4001.02564102564,4048.20512820513,4565.12820512821,4429.23076923077,4313.33333333333,4446.15384615385,4650.25641025641,4136.92307692308,4138.97435897436,4194.35897435897,3906.66666666667,4182.05128205128,1666,1691,45.708,45.6798820495605,0,0,0,0,2/8/2015 6:21:01 AM,
86,0,427,4540,3952.82051282051,4002.05128205128,4057.4358974359,4584.10256410256,4426.15384615385,4313.33333333333,4441.53846153846,4649.23076923077,4140.51282051282,4149.74358974359,4193.84615384615,3906.66666666667,4191.79487179487,1665,1692,45.715,45.6798820495605,0,0,0,0,2/8/2015 6:21:01 AM,
87,0,456,4528.71794871795,3960.51282051282,4002.05128205128,4047.17948717949,4584.10256410256,4430.25641025641,4313.33333333333,4447.17948717949,4655.38461538462,4139.48717948718,4155.38461538462,4201.02564102564,3921.02564102564,4167.17948717949,1666,1691,45.722,45.6798820495605,0,0,0,0,2/8/2015 6:21:01 AM,
88,0,409,4514.35897435897,3948.20512820513,3993.84615384615,4034.35897435898,4560,4435.38461538462,4312.30769230769,4448.20512820513,4657.94871794872,4140.51282051282,4144.10256410256,4202.05128205128,3918.97435897436,4135.38461538462,1666,1691,45.73,45.6798820495605,0,0,0,0,2/8/2015 6:21:01 AM,
89,0,437,4501.53846153846,3937.4358974359,3995.38461538462,4038.97435897436,4547.17948717949,4434.35897435897,4313.84615384615,4440.51282051282,4647.17948717949,4135.38461538462,4133.33333333333,4190.25641025641,3896.92307692308,4136.41025641026,1666,1692,45.738,45.6798820495605,0,0,0,0,2/8/2015 6:21:01 AM,
90,0,427,4494.35897435897,3943.07692307692,4002.05128205128,4037.4358974359,4555.38461538462,4433.33333333333,4313.84615384615,4437.4358974359,4643.58974358974,4125.12820512821,4137.94871794872,4182.5641025641,3891.28205128205,4139.48717948718,1666,1693,45.746,45.6798820495605,0,0,0,0,2/8/2015 6:21:01 AM,
91,0,456,4494.35897435897,3945.12820512821,4000,4021.02564102564,4552.30769230769,4440,4313.33333333333,4436.41025641026,4654.8717948718,4120,4138.97435897436,4186.66666666667,3897.4358974359,4133.84615384615,1665,1695,45.753,45.6798820495605,0,0,0,0,2/8/2015 6:21:01 AM,
92,0,409,4513.33333333333,3938.97435897436,3991.28205128205,4018.46153846154,4532.82051282051,4438.97435897436,4313.84615384615,4430.76923076923,4652.82051282051,4124.61538461538,4132.82051282051,4187.17948717949,3895.89743589744,4142.5641025641,1666,1694,45.761,45.6798820495605,0,0,0,0,2/8/2015 6:21:01 AM,
93,0,437,4520.51282051282,3938.97435897436,3985.12820512821,4029.74358974359,4531.79487179487,4430.76923076923,4313.84615384615,4424.10256410256,4641.02564102564,4139.48717948718,4143.58974358974,4182.5641025641,3899.48717948718,4129.23076923077,1666,1695,45.769,45.6798820495605,0,0,0,0,2/8/2015 6:21:01 AM,
94,0,427,4495.38461538462,3940,3995.89743589744,4029.74358974359,4557.94871794872,4434.8717948718,4313.84615384615,4423.58974358974,4643.58974358974,4151.79487179487,4156.41025641026,4189.74358974359,3911.28205128205,4094.8717948718,1665,1695,45.779,45.6798820495605,0,0,0,0,2/8/2015 6:21:01 AM,
95,0,456,4490.76923076923,3945.12820512821,4007.17948717949,4029.23076923077,4574.35897435897,4444.61538461538,4313.84615384615,4428.20512820513,4652.30769230769,4153.84615384615,4152.82051282051,4194.35897435897,3912.30769230769,4123.58974358974,1665,1696,45.787,45.6798820495605,0,0,0,0,2/8/2015 6:21:01 AM,
96,0,409,4510.25641025641,3955.89743589744,3997.94871794872,4034.35897435898,4572.30769230769,4446.66666666667,4313.84615384615,4430.25641025641,4652.30769230769,4151.79487179487,4150.25641025641,4183.07692307692,3903.58974358974,4183.07692307692,1666,1696,45.795,45.6798820495605,0,0,0,0,2/8/2015 6:21:01 AM,
97,0,437,4511.28205128205,3956.41025641026,3988.71794871795,4024.61538461539,4566.15384615385,4442.05128205128,4313.33333333333,4425.64102564103,4647.17948717949,4145.12820512821,4147.17948717949,4179.48717948718,3894.8717948718,4165.12820512821,1665,1696,45.802,45.6798820495605,0,0,0,0,2/8/2015 6:21:01 AM,
98,0,427,4502.05128205128,3940,3994.8717948718,4012.82051282051,4560.51282051282,4431.28205128205,4313.84615384615,4419.48717948718,4643.58974358974,4134.8717948718,4140,4187.69230769231,3893.84615384615,4120,1665,1694,45.809,45.6798820495605,0,0,0,0,2/8/2015 6:21:01 AM,
99,0,456,4507.69230769231,3940,3999.48717948718,4023.07692307692,4560.51282051282,4428.71794871795,4313.84615384615,4420.51282051282,4643.58974358974,4135.89743589744,4149.74358974359,4188.71794871795,3903.07692307692,4138.46153846154,1663,1693,45.816,45.804988861084,0,0,0,0,2/8/2015 6:21:02 AM,
100,0,409,4517.4358974359,3964.61538461539,4001.02564102564,4033.33333333333,4559.48717948718,4443.07692307692,4311.79487179487,4426.66666666667,4647.69230769231,4148.20512820513,4157.94871794872,4186.66666666667,3911.79487179487,4166.15384615385,1664,1693,45.824,45.804988861084,0,0,0,0,2/8/2015 6:21:02 AM,
101,0,437,4523.07692307692,3971.79487179487,4002.5641025641,4027.69230769231,4550.25641025641,4445.12820512821,4311.79487179487,4427.69230769231,4649.23076923077,4153.84615384615,4140.51282051282,4189.23076923077,3909.74358974359,4143.58974358974,1663,1692,45.832,45.804988861084,0,0,0,0,2/8/2015 6:21:02 AM,
102,0,427,4514.8717948718,3955.89743589744,3994.8717948718,4022.05128205128,4551.79487179487,4433.84615384615,4313.84615384615,4424.61538461538,4647.69230769231,4148.20512820513,4136.41025641026,4185.12820512821,3906.66666666667,4129.23076923077,1663,1694,45.911,45.804988861084,0,0,0,0,2/8/2015 6:21:02 AM,
103,0,456,4500,3954.8717948718,3993.33333333333,4027.17948717949,4556.92307692308,4438.46153846154,4314.35897435897,4425.12820512821,4649.74358974359,4139.48717948718,4156.41025641026,4180.51282051282,3911.28205128205,4154.35897435897,1664,1693,45.912,45.804988861084,0,0,0,0,2/8/2015 6:21:02 AM,
104,0,409,4509.23076923077,3958.97435897436,3999.48717948718,4031.79487179487,4552.30769230769,4444.10256410256,4312.82051282051,4426.66666666667,4650.76923076923,4136.92307692308,4156.92307692308,4184.10256410256,3916.41025641026,4161.53846153846,1663,1694,45.912,45.804988861084,0,0,0,0,2/8/2015 6:21:02 AM,
105,0,437,4524.10256410256,3945.12820512821,3989.74358974359,4022.5641025641,4553.84615384615,4431.79487179487,4312.30769230769,4426.15384615385,4647.17948717949,4138.97435897436,4141.02564102564,4186.15384615385,3909.23076923077,4138.46153846154,1663,1694,45.912,45.804988861084,0,0,0,0,2/8/2015 6:21:02 AM,
106,0,427,4520.51282051282,3938.97435897436,3987.17948717949,4015.89743589744,4556.92307692308,4423.07692307692,4311.28205128205,4427.17948717949,4648.71794871795,4147.17948717949,4142.5641025641,4182.5641025641,3904.61538461539,4150.25641025641,1663,1694,45.912,45.804988861084,0,0,0,0,2/8/2015 6:21:02 AM,
107,0,456,4523.58974358974,3958.46153846154,3997.4358974359,4025.64102564103,4560.51282051282,4430.25641025641,4310.25641025641,4430.25641025641,4659.48717948718,4157.4358974359,4157.4358974359,4181.02564102564,3917.94871794872,4180.51282051282,1664,1694,45.912,45.804988861084,0,0,0,0,2/8/2015 6:21:02 AM,
108,0,409,4529.23076923077,3969.23076923077,4001.02564102564,4034.35897435898,4574.8717948718,4441.02564102564,4307.17948717949,4426.66666666667,4662.05128205128,4152.30769230769,4169.23076923077,4181.53846153846,3933.33333333333,4151.79487179487,1663,1694,45.912,45.804988861084,0,0,0,0,2/8/2015 6:21:02 AM,
109,0,437,4510.76923076923,3957.94871794872,4008.71794871795,4025.64102564103,4579.48717948718,4447.69230769231,4303.58974358974,4418.46153846154,4652.30769230769,4138.97435897436,4169.74358974359,4185.64102564103,3926.66666666667,4108.20512820513,1665,1695,45.912,45.804988861084,0,0,0,0,2/8/2015 6:21:02 AM,
110,0,427,4494.35897435897,3951.28205128205,4008.71794871795,4016.41025641026,4565.12820512821,4439.48717948718,4303.07692307692,4416.92307692308,4646.15384615385,4134.35897435897,4160,4187.69230769231,3912.82051282051,4135.38461538462,1664,1695,45.912,45.804988861084,0,0,0,0,2/8/2015 6:21:02 AM,
111,0,456,4498.46153846154,3949.74358974359,3990.25641025641,4018.46153846154,4552.82051282051,4421.53846153846,4304.10256410256,4414.35897435897,4644.61538461538,4134.8717948718,4154.8717948718,4184.61538461538,3909.74358974359,4164.10256410256,1665,1694,45.912,45.804988861084,0,0,0,0,2/8/2015 6:21:02 AM,
112,0,409,4509.74358974359,3943.07692307692,3982.05128205128,4015.89743589744,4547.69230769231,4417.94871794872,4304.61538461538,4410.25641025641,4644.61538461538,4138.97435897436,4155.38461538462,4185.12820512821,3914.35897435898,4139.48717948718,1664,1694,45.918,45.804988861084,0,0,0,0,2/8/2015 6:21:02 AM,
113,0,437,4517.94871794872,3946.15384615385,3987.69230769231,4009.74358974359,4553.84615384615,4426.66666666667,4303.58974358974,4417.94871794872,4648.20512820513,4148.20512820513,4157.94871794872,4184.10256410256,3921.02564102564,4134.8717948718,1664,1694,45.926,45.804988861084,0,0,0,0,2/8/2015 6:21:02 AM,
114,0,427,4519.48717948718,3954.35897435898,3994.35897435898,4017.94871794872,4576.41025641026,4427.17948717949,4305.64102564103,4427.69230769231,4649.74358974359,4154.35897435897,4169.23076923077,4182.5641025641,3923.07692307692,4156.92307692308,1664,1694,45.935,45.804988861084,0,0,0,0,2/8/2015 6:21:02 AM,
115,0,456,4521.02564102564,3958.46153846154,4000.51282051282,4037.4358974359,4589.74358974359,4424.10256410256,4311.28205128205,4425.64102564103,4647.69230769231,4155.38461538462,4187.17948717949,4187.69230769231,3930.76923076923,4159.48717948718,1665,1693,45.943,45.9222755432129,0,0,0,0,2/8/2015 6:21:02 AM,
116,0,409,4523.07692307692,3972.30769230769,4003.07692307692,4051.28205128205,4580,4436.92307692308,4314.35897435897,4426.66666666667,4649.74358974359,4150.76923076923,4191.28205128205,4186.66666666667,3940.51282051282,4166.66666666667,1665,1693,45.951,45.9222755432129,0,0,0,0,2/8/2015 6:21:02 AM,
117,0,437,4513.33333333333,3977.4358974359,4000,4044.61538461539,4566.15384615385,4446.66666666667,4313.84615384615,4431.28205128205,4648.71794871795,4140.51282051282,4179.48717948718,4183.07692307692,3931.79487179487,4166.66666666667,1665,1693,45.957,45.9222755432129,0,0,0,0,2/8/2015 6:21:02 AM,
118,0,427,4507.69230769231,3963.07692307692,4005.12820512821,4035.38461538462,4567.17948717949,4436.41025641026,4314.35897435897,4424.10256410256,4643.58974358974,4132.82051282051,4183.58974358974,4197.4358974359,3925.12820512821,4134.8717948718,1664,1693,45.965,45.9222755432129,0,0,0,0,2/8/2015 6:21:02 AM,
119,0,456,4524.61538461538,3967.17948717949,4008.20512820513,4048.20512820513,4576.92307692308,4435.38461538462,4310.25641025641,4416.41025641026,4649.74358974359,4140.51282051282,4201.02564102564,4207.17948717949,3940,4125.64102564103,1665,1694,45.972,45.9222755432129,0,0,0,0,2/8/2015 6:21:02 AM,
120,0,409,4524.61538461538,3975.38461538462,4005.12820512821,4060.51282051282,4582.05128205128,4448.20512820513,4305.12820512821,4420,4656.92307692308,4147.17948717949,4203.07692307692,4191.28205128205,3945.64102564103,4145.12820512821,1665,1693,45.98,45.9222755432129,0,0,0,0,2/8/2015 6:21:02 AM,
121,0,437,4504.10256410256,3962.05128205128,4001.53846153846,4047.17948717949,4574.8717948718,4440.51282051282,4307.17948717949,4417.4358974359,4653.33333333333,4143.58974358974,4194.35897435897,4179.48717948718,3937.4358974359,4146.66666666667,1664,1694,45.989,45.9222755432129,0,0,0,0,2/8/2015 6:21:02 AM,
122,0,427,4507.17948717949,3955.38461538462,3995.89743589744,4035.89743589744,4556.92307692308,4421.53846153846,4308.71794871795,4405.64102564103,4645.64102564103,4134.35897435897,4196.41025641026,4188.20512820513,3936.41025641026,4126.15384615385,1664,1693,45.997,45.9222755432129,0,0,0,0,2/8/2015 6:21:02 AM,
123,0,456,4511.79487179487,3954.8717948718,3989.23076923077,4050.25641025641,4543.07692307692,4421.02564102564,4306.66666666667,4399.48717948718,4637.94871794872,4122.5641025641,4200.51282051282,4190.76923076923,3932.30769230769,4105.64102564103,1663,1694,46.005,45.9222755432129,0,0,0,0,2/8/2015 6:21:02 AM,
124,0,409,4492.82051282051,3945.64102564103,3986.15384615385,4045.12820512821,4534.8717948718,4418.97435897436,4306.66666666667,4399.48717948718,4631.28205128205,4121.02564102564,4197.94871794872,4182.5641025641,3921.02564102564,4114.8717948718,1663,1693,46.013,45.9222755432129,0,0,0,0,2/8/2015 6:21:02 AM,
125,0,437,4482.5641025641,3935.89743589744,3988.71794871795,4016.92307692308,4531.28205128205,4410.25641025641,4307.69230769231,4402.5641025641,4632.82051282051,4133.33333333333,4202.05128205128,4184.61538461538,3920,4142.05128205128,1664,1693,46.019,45.9222755432129,0,0,0,0,2/8/2015 6:21:02 AM,
126,0,427,4501.53846153846,3938.46153846154,3981.53846153846,4025.64102564103,4551.79487179487,4418.46153846154,4307.69230769231,4409.74358974359,4642.5641025641,4143.58974358974,4218.46153846154,4187.69230769231,3935.38461538462,4158.97435897436,1664,1694,46.027,45.9222755432129,0,0,0,0,2/8/2015 6:21:02 AM,
127,0,456,4517.94871794872,3951.79487179487,3968.71794871795,4053.84615384615,4578.97435897436,4431.79487179487,4310.76923076923,4413.84615384615,4649.23076923077,4142.05128205128,4222.05128205128,4175.89743589744,3951.28205128205,4158.46153846154,1663,1693,46.035,45.9222755432129,0,0,0,0,2/8/2015 6:21:02 AM,
128,0,409,4504.10256410256,3953.84615384615,3972.30769230769,4049.74358974359,4560,4428.71794871795,4311.79487179487,4411.28205128205,4648.71794871795,4141.53846153846,4210.25641025641,4172.82051282051,3949.23076923077,4134.35897435897,1664,1694,46.043,45.9222755432129,0,0,0,0,2/8/2015 6:21:02 AM,
0,0,449,4486.66666666667,3940.51282051282,3982.05128205128,4045.64102564103,4531.28205128205,4422.5641025641,4308.20512820513,4408.20512820513,4646.15384615385,4139.48717948718,4207.69230769231,4184.10256410256,3938.97435897436,4110.76923076923,1663,1694,46.051,45.9222755432129,0,0,0,0,2/8/2015 6:21:02 AM,
1,0,445,4490.25641025641,3944.61538461539,3983.07692307692,4065.12820512821,4550.25641025641,4431.79487179487,4306.66666666667,4409.74358974359,4652.30769230769,4133.33333333333,4220.51282051282,4187.17948717949,3940,4125.12820512821,1664,1694,46.058,45.9222755432129,0,0,0,0,2/8/2015 6:21:02 AM,
2,0,465,4490.76923076923,3958.97435897436,3986.15384615385,4060,4560,4436.41025641026,4308.20512820513,4407.69230769231,4657.4358974359,4135.38461538462,4229.23076923077,4189.74358974359,3942.05128205128,4141.53846153846,1664,1693,46.066,46.0473861694336,0,0,0,0,2/8/2015 6:21:02 AM,
3,0,493,4486.15384615385,3955.38461538462,3987.69230769231,4048.71794871795,4560,4428.20512820513,4308.71794871795,4401.53846153846,4651.79487179487,4142.5641025641,4234.35897435897,4200.51282051282,3947.17948717949,4117.4358974359,1663,1693,46.074,46.0473861694336,0,0,0,0,2/8/2015 6:21:02 AM,
4,0,475,4502.05128205128,3952.82051282051,3979.48717948718,4064.61538461539,4582.5641025641,4429.74358974359,4308.71794871795,4394.35897435897,4648.20512820513,4142.05128205128,4234.8717948718,4198.46153846154,3963.07692307692,4089.74358974359,1664,1692,46.082,46.0473861694336,0,0,0,0,2/8/2015 6:21:02 AM,
5,0,463,4515.38461538462,3956.92307692308,3973.33333333333,4070.76923076923,4569.23076923077,4435.89743589744,4306.66666666667,4386.15384615385,4649.74358974359,4138.46153846154,4232.30769230769,4185.64102564103,3966.66666666667,4103.58974358974,1663,1693,46.09,46.0473861694336,0,0,0,0,2/8/2015 6:21:02 AM,
6,0,480,4507.17948717949,3955.38461538462,3974.8717948718,4065.12820512821,4534.35897435897,4430.25641025641,4304.10256410256,4380.51282051282,4646.66666666667,4141.53846153846,4233.84615384615,4183.58974358974,3956.92307692308,4141.53846153846,1664,1692,46.097,46.0786628723145,0,0,0,0,2/8/2015 6:21:02 AM,
7,0,0,4500,3956.92307692308,3982.5641025641,4074.35897435898,4543.58974358974,4424.10256410256,4303.07692307692,4381.02564102564,4646.15384615385,4142.05128205128,4235.89743589744,4185.64102564103,3955.38461538462,4145.64102564103,1664,1692,46.105,46.0786628723145,0,0,0,0,2/8/2015 6:21:02 AM,
8,0,410,4503.07692307692,3956.92307692308,3990.76923076923,4084.61538461539,4563.07692307692,4428.20512820513,4304.10256410256,4384.10256410256,4651.79487179487,4136.92307692308,4241.02564102564,4190.25641025641,3966.15384615385,4114.8717948718,1664,1693,46.113,46.0786628723145,0,0,0,0,2/8/2015 6:21:02 AM,
9,0,426,4512.30769230769,3956.92307692308,3991.28205128205,4078.97435897436,4562.05128205128,4428.71794871795,4303.58974358974,4382.5641025641,4645.12820512821,4135.38461538462,4242.05128205128,4199.48717948718,3968.20512820513,4100,1665,1693,46.121,46.0786628723145,0,0,0,0,2/8/2015 6:21:02 AM,
10,0,429,4508.71794871795,3960,3980.51282051282,4071.79487179487,4556.92307692308,4424.10256410256,4303.07692307692,4375.89743589744,4633.84615384615,4137.4358974359,4230.25641025641,4202.05128205128,3956.92307692308,4106.66666666667,1664,1694,46.129,46.0786628723145,0,0,0,0,2/8/2015 6:21:02 AM,
11,0,456,4491.79487179487,3957.94871794872,3975.38461538462,4079.48717948718,4552.82051282051,4423.58974358974,4310.76923076923,4372.82051282051,4639.48717948718,4136.41025641026,4232.30769230769,4198.97435897436,3957.4358974359,4118.97435897436,1664,1695,46.138,46.0786628723145,0,0,0,0,2/8/2015 6:21:02 AM,
12,0,414,4493.84615384615,3965.12820512821,3981.53846153846,4095.38461538462,4565.12820512821,4428.20512820513,4317.4358974359,4377.4358974359,4654.8717948718,4135.89743589744,4260.51282051282,4197.94871794872,3975.89743589744,4123.58974358974,1664,1695,46.145,46.0786628723145,0,0,0,0,2/8/2015 6:21:02 AM,
13,0,437,4502.5641025641,3974.8717948718,3989.74358974359,4100.51282051282,4568.71794871795,4430.76923076923,4315.38461538462,4384.10256410256,4657.94871794872,4138.97435897436,4267.69230769231,4189.74358974359,3983.58974358974,4112.30769230769,1664,1694,46.153,46.0786628723145,0,0,0,0,2/8/2015 6:21:02 AM,
14,0,429,4488.71794871795,3960.51282051282,3988.71794871795,4088.20512820513,4547.69230769231,4421.53846153846,4310.76923076923,4381.02564102564,4648.20512820513,4133.33333333333,4234.8717948718,4186.66666666667,3964.61538461539,4109.74358974359,1662,1695,46.161,46.0786628723145,0,0,0,0,2/8/2015 6:21:02 AM,
15,0,456,4490.25641025641,3948.20512820513,3977.94871794872,4076.92307692308,4554.8717948718,4410.76923076923,4308.20512820513,4375.38461538462,4638.97435897436,4126.15384615385,4226.15384615385,4200,3957.94871794872,4118.46153846154,1664,1694,46.168,46.0786628723145,0,0,0,0,2/8/2015 6:21:02 AM,
16,0,0,4513.84615384615,3965.64102564103,3973.33333333333,4082.05128205128,4574.8717948718,4411.28205128205,4306.15384615385,4383.58974358974,4641.02564102564,4131.28205128205,4255.89743589744,4199.48717948718,3981.53846153846,4127.17948717949,1663,1694,46.176,46.0786628723145,0,0,0,0,2/8/2015 6:21:02 AM,
17,0,0,4508.20512820513,3975.89743589744,3983.07692307692,4090.25641025641,4552.82051282051,4413.33333333333,4307.17948717949,4393.33333333333,4648.20512820513,4137.94871794872,4257.94871794872,4186.15384615385,3983.58974358974,4140.51282051282,1664,1695,46.183,46.0786628723145,0,0,0,0,2/8/2015 6:21:02 AM,
18,0,0,4498.97435897436,3960,3995.38461538462,4089.23076923077,4533.84615384615,4412.82051282051,4308.71794871795,4391.28205128205,4645.64102564103,4137.94871794872,4230.76923076923,4196.92307692308,3956.92307692308,4132.82051282051,1663,1695,46.191,46.172492980957,0,0,0,0,2/8/2015 6:21:02 AM,
19,0,0,4516.41025641026,3960,3992.30769230769,4090.25641025641,4560,4421.02564102564,4307.17948717949,4386.66666666667,4642.05128205128,4134.8717948718,4244.61538461538,4208.20512820513,3964.61538461539,4124.10256410256,1663,1696,46.2,46.172492980957,0,0,0,0,2/8/2015 6:21:02 AM,
20,0,0,4517.94871794872,3984.10256410256,3988.71794871795,4101.53846153846,4585.12820512821,4429.74358974359,4308.71794871795,4387.69230769231,4645.64102564103,4135.38461538462,4279.48717948718,4192.82051282051,4001.53846153846,4149.74358974359,1663,1696,46.208,46.172492980957,0,0,0,0,2/8/2015 6:21:02 AM,
21,0,0,4504.10256410256,3993.84615384615,3989.74358974359,4107.17948717949,4580.51282051282,4426.15384615385,4313.33333333333,4386.66666666667,4647.17948717949,4145.12820512821,4271.79487179487,4178.97435897436,4008.20512820513,4165.12820512821,1663,1695,46.216,46.172492980957,0,0,0,0,2/8/2015 6:21:02 AM,
22,0,0,4504.61538461538,3980,3977.4358974359,4103.07692307692,4566.66666666667,4416.41025641026,4313.33333333333,4381.53846153846,4642.5641025641,4151.79487179487,4248.71794871795,4178.46153846154,3989.23076923077,4144.61538461538,1664,1694,46.224,46.172492980957,0,0,0,0,2/8/2015 6:21:02 AM,
23,0,0,4508.71794871795,3966.15384615385,3977.4358974359,4103.07692307692,4551.79487179487,4416.41025641026,4308.20512820513,4378.97435897436,4645.12820512821,4145.12820512821,4244.10256410256,4187.17948717949,3978.97435897436,4125.64102564103,1664,1693,46.231,46.172492980957,0,0,0,0,2/8/2015 6:21:02 AM,
24,0,0,4505.64102564103,3960.51282051282,3998.46153846154,4108.71794871795,4542.05128205128,4423.58974358974,4305.12820512821,4382.05128205128,4647.69230769231,4137.4358974359,4246.15384615385,4201.53846153846,3982.05128205128,4123.58974358974,1664,1692,46.239,46.172492980957,0,0,0,0,2/8/2015 6:21:02 AM,
25,0,0,4511.28205128205,3963.58974358974,4003.58974358974,4121.02564102564,4552.30769230769,4425.64102564103,4308.71794871795,4387.17948717949,4640.51282051282,4141.53846153846,4254.35897435897,4206.66666666667,3994.35897435898,4127.17948717949,1665,1692,46.247,46.172492980957,0,0,0,0,2/8/2015 6:21:02 AM,
26,0,0,4521.53846153846,3977.4358974359,3987.17948717949,4136.41025641026,4573.33333333333,4422.05128205128,4309.74358974359,4392.30769230769,4641.02564102564,4150.76923076923,4263.58974358974,4197.4358974359,4005.64102564103,4142.05128205128,1666,1692,46.255,46.172492980957,0,0,0,0,2/8/2015 6:21:02 AM,
27,0,0,4521.53846153846,3986.66666666667,3978.46153846154,4139.48717948718,4571.79487179487,4417.4358974359,4306.15384615385,4396.41025641026,4652.30769230769,4156.92307692308,4263.58974358974,4196.41025641026,4012.82051282051,4153.84615384615,1664,1693,46.263,46.172492980957,0,0,0,0,2/8/2015 6:21:02 AM,
28,0,0,4518.97435897436,3986.66666666667,3989.23076923077,4139.48717948718,4557.4358974359,4416.41025641026,4307.69230769231,4397.4358974359,4656.41025641026,4153.33333333333,4264.61538461538,4200,4020,4151.28205128205,1667,1694,46.27,46.172492980957,0,0,0,0,2/8/2015 6:21:02 AM,
29,0,0,4519.48717948718,3995.38461538462,4005.12820512821,4154.35897435897,4560,4422.5641025641,4314.35897435897,4401.53846153846,4656.92307692308,4142.5641025641,4267.17948717949,4202.5641025641,4017.94871794872,4150.25641025641,1667,1693,46.277,46.172492980957,0,0,0,0,2/8/2015 6:21:02 AM,
30,0,0,4524.61538461538,4007.69230769231,4008.20512820513,4170.25641025641,4566.66666666667,4435.38461538462,4313.33333333333,4407.17948717949,4661.02564102564,4137.4358974359,4268.20512820513,4210.25641025641,4012.82051282051,4155.38461538462,1667,1694,46.286,46.172492980957,0,0,0,0,2/8/2015 6:21:02 AM,
31,0,0,4519.48717948718,4008.20512820513,4000.51282051282,4178.46153846154,4571.79487179487,4444.61538461538,4307.69230769231,4402.5641025641,4658.46153846154,4142.5641025641,4275.38461538462,4214.35897435897,4010.25641025641,4152.82051282051,1667,1694,46.294,46.172492980957,0,0,0,0,2/8/2015 6:21:02 AM,
32,0,0,4497.94871794872,4004.61538461539,4005.64102564103,4184.61538461538,4584.61538461538,4444.61538461538,4308.71794871795,4396.41025641026,4655.89743589744,4157.94871794872,4284.61538461538,4218.46153846154,4014.8717948718,4124.61538461538,1666,1694,46.301,46.172492980957,0,0,0,0,2/8/2015 6:21:02 AM,
33,0,0,4500.51282051282,4005.12820512821,4009.74358974359,4185.12820512821,4581.02564102564,4440.51282051282,4316.41025641026,4398.46153846154,4658.46153846154,4162.05128205128,4280,4218.97435897436,4023.58974358974,4120,1667,1692,46.31,46.172492980957,0,0,0,0,2/8/2015 6:21:02 AM,
34,0,0,4522.05128205128,3997.94871794872,3993.84615384615,4188.71794871795,4549.23076923077,4430.25641025641,4319.48717948718,4397.4358974359,4649.74358974359,4145.12820512821,4265.64102564103,4206.66666666667,4016.41025641026,4147.17948717949,1668,1692,46.316,46.2975997924805,0,0,0,0,2/8/2015 6:21:02 AM,
35,0,0,4520,3986.15384615385,3991.28205128205,4199.48717948718,4549.74358974359,4423.58974358974,4318.46153846154,4392.82051282051,4645.12820512821,4139.48717948718,4260,4196.92307692308,4008.71794871795,4158.97435897436,1667,1691,46.325,46.2975997924805,0,0,0,0,2/8/2015 6:21:02 AM,
36,0,0,4508.20512820513,3984.10256410256,4004.61538461539,4202.5641025641,4583.58974358974,4432.82051282051,4317.94871794872,4396.92307692308,4656.41025641026,4151.28205128205,4267.69230769231,4202.05128205128,4021.02564102564,4156.92307692308,1666,1693,46.333,46.2975997924805,0,0,0,0,2/8/2015 6:21:02 AM,
37,0,0,4511.28205128205,3987.69230769231,4001.53846153846,4204.10256410256,4585.12820512821,4443.07692307692,4318.97435897436,4402.5641025641,4661.53846153846,4152.30769230769,4272.82051282051,4202.5641025641,4035.38461538462,4147.69230769231,1666,1692,46.34,46.2975997924805,0,0,0,0,2/8/2015 6:21:02 AM,
38,0,0,4509.74358974359,3987.17948717949,3994.35897435898,4210.76923076923,4571.28205128205,4441.02564102564,4319.48717948718,4401.02564102564,4656.92307692308,4149.23076923077,4262.5641025641,4196.41025641026,4030.25641025641,4144.61538461538,1666,1693,46.348,46.2975997924805,0,0,0,0,2/8/2015 6:21:02 AM,
39,0,0,4497.4358974359,3985.64102564103,4004.10256410256,4214.8717948718,4561.02564102564,4437.94871794872,4319.48717948718,4402.05128205128,4659.48717948718,4153.84615384615,4250.25641025641,4209.23076923077,4017.94871794872,4146.66666666667,1665,1692,46.356,46.2975997924805,0,0,0,0,2/8/2015 6:21:02 AM,
40,0,0,4504.61538461538,3990.76923076923,4012.30769230769,4225.64102564103,4554.8717948718,4443.07692307692,4320,4408.20512820513,4663.58974358974,4152.82051282051,4235.38461538462,4220,4017.4358974359,4141.53846153846,1665,1693,46.363,46.2975997924805,0,0,0,0,2/8/2015 6:21:02 AM,
41,0,0,4520,3997.94871794872,4004.61538461539,4235.89743589744,4575.38461538462,4448.20512820513,4320,4412.30769230769,4663.07692307692,4150.25641025641,4205.12820512821,4204.61538461538,4031.79487179487,4129.23076923077,1664,1692,46.371,46.2975997924805,0,0,0,0,2/8/2015 6:21:02 AM,
42,0,0,4512.30769230769,3998.97435897436,4000.51282051282,4235.38461538462,4590.76923076923,4442.5641025641,4319.48717948718,4410.25641025641,4664.61538461539,4154.8717948718,4185.64102564103,4196.41025641026,4040,4137.94871794872,1664,1693,46.38,46.2975997924805,0,0,0,0,2/8/2015 6:21:02 AM,
43,0,0,4503.07692307692,3996.41025641026,4008.71794871795,4241.02564102564,4571.28205128205,4436.41025641026,4320,4407.17948717949,4666.66666666667,4150.76923076923,4185.12820512821,4211.28205128205,4031.28205128205,4165.64102564103,1664,1691,46.388,46.2975997924805,0,0,0,0,2/8/2015 6:21:02 AM,
44,0,0,4516.41025641026,3996.92307692308,4011.28205128205,4248.71794871795,4558.97435897436,4433.84615384615,4319.48717948718,4401.53846153846,4661.02564102564,4142.05128205128,4174.35897435897,4212.82051282051,4023.58974358974,4172.30769230769,1663,1692,46.396,46.2975997924805,0,0,0,0,2/8/2015 6:21:02 AM,
45,0,0,4532.82051282051,4003.07692307692,4001.53846153846,4252.82051282051,4560.51282051282,4429.74358974359,4315.38461538462,4395.38461538462,4657.94871794872,4148.20512820513,4164.61538461538,4195.38461538462,4032.82051282051,4168.71794871795,1664,1691,46.403,46.2975997924805,0,0,0,0,2/8/2015 6:21:02 AM,
46,0,0,4524.10256410256,4008.71794871795,4000.51282051282,4257.4358974359,4544.61538461538,4427.69230769231,4310.25641025641,4394.35897435897,4655.89743589744,4155.89743589744,4169.74358974359,4194.35897435897,4038.97435897436,4156.41025641026,1663,1692,46.41,46.2975997924805,0,0,0,0,2/8/2015 6:21:02 AM,
47,0,0,4510.25641025641,4004.10256410256,4009.23076923077,4250.76923076923,4535.38461538462,4430.25641025641,4309.74358974359,4396.92307692308,4648.71794871795,4146.66666666667,4166.66666666667,4207.69230769231,4024.61538461539,4127.17948717949,1664,1693,46.418,46.2975997924805,0,0,0,0,2/8/2015 6:21:02 AM,
48,0,0,4506.66666666667,3992.30769230769,4006.66666666667,4240,4548.20512820513,4428.71794871795,4311.28205128205,4402.5641025641,4654.35897435897,4134.8717948718,4159.48717948718,4215.89743589744,4019.48717948718,4109.74358974359,1664,1693,46.426,46.2975997924805,0,0,0,0,2/8/2015 6:21:02 AM,
49,0,0,4513.84615384615,3990.76923076923,4003.07692307692,4252.82051282051,4572.30769230769,4427.17948717949,4309.74358974359,4403.07692307692,4666.66666666667,4135.89743589744,4159.48717948718,4218.46153846154,4028.20512820513,4121.53846153846,1664,1694,46.434,46.2975997924805,0,0,0,0,2/8/2015 6:21:02 AM,
50,0,0,4532.82051282051,4000.51282051282,4006.15384615385,4277.4358974359,4589.74358974359,4438.97435897436,4310.76923076923,4396.41025641026,4661.02564102564,4147.69230769231,4153.84615384615,4213.33333333333,4017.4358974359,4146.66666666667,1664,1693,46.442,46.4227066040039,0,0,0,0,2/8/2015 6:21:02 AM,
51,0,0,4540,4005.64102564103,4007.69230769231,4274.8717948718,4573.84615384615,4446.66666666667,4316.41025641026,4394.35897435897,4652.82051282051,4152.82051282051,4154.35897435897,4205.12820512821,4009.74358974359,4163.58974358974,1664,1693,46.449,46.4227066040039,0,0,0,0,2/8/2015 6:21:02 AM,
52,0,0,4533.84615384615,4007.69230769231,4009.23076923077,4262.5641025641,4561.53846153846,4444.61538461538,4319.48717948718,4397.94871794872,4663.07692307692,4154.8717948718,4171.79487179487,4196.92307692308,4038.97435897436,4190.25641025641,1665,1692,46.457,46.4227066040039,0,0,0,0,2/8/2015 6:21:02 AM,
53,0,0,4529.74358974359,4017.4358974359,4013.33333333333,4272.82051282051,4573.84615384615,4445.12820512821,4317.94871794872,4397.94871794872,4668.20512820513,4169.23076923077,4177.94871794872,4194.8717948718,4054.35897435898,4196.92307692308,1665,1693,46.465,46.4227066040039,0,0,0,0,2/8/2015 6:21:02 AM,
54,0,0,4516.92307692308,4020.51282051282,4018.46153846154,4282.5641025641,4563.58974358974,4440,4314.35897435897,4391.79487179487,4655.89743589744,4171.79487179487,4163.58974358974,4215.38461538462,4027.69230769231,4153.33333333333,1665,1692,46.473,46.4227066040039,0,0,0,0,2/8/2015 6:21:02 AM,
55,0,0,4506.15384615385,4007.69230769231,4016.92307692308,4269.74358974359,4546.15384615385,4426.66666666667,4310.25641025641,4386.66666666667,4647.17948717949,4154.35897435897,4149.74358974359,4227.17948717949,4012.82051282051,4129.74358974359,1664,1693,46.481,46.4227066040039,0,0,0,0,2/8/2015 6:21:02 AM,
56,0,0,4516.92307692308,4004.61538461539,4004.61538461539,4269.23076923077,4569.74358974359,4426.15384615385,4307.17948717949,4390.76923076923,4648.20512820513,4150.76923076923,4151.28205128205,4208.71794871795,4024.61538461539,4158.46153846154,1665,1691,46.488,46.4227066040039,0,0,0,0,2/8/2015 6:21:02 AM,
57,0,0,4517.94871794872,4005.64102564103,4000,4282.5641025641,4585.64102564103,4432.30769230769,4307.17948717949,4401.53846153846,4655.89743589744,4158.97435897436,4161.53846153846,4197.94871794872,4023.07692307692,4173.84615384615,1664,1691,46.496,46.4227066040039,0,0,0,0,2/8/2015 6:21:02 AM,
58,0,0,4502.5641025641,3992.30769230769,4009.74358974359,4279.48717948718,4568.20512820513,4428.20512820513,4307.17948717949,4404.10256410256,4651.28205128205,4152.30769230769,4150.76923076923,4211.79487179487,4001.53846153846,4145.12820512821,1665,1692,46.504,46.4227066040039,0,0,0,0,2/8/2015 6:21:02 AM,
59,0,0,4509.74358974359,3991.28205128205,4010.76923076923,4273.84615384615,4567.17948717949,4433.33333333333,4308.71794871795,4398.46153846154,4641.02564102564,4151.28205128205,4135.89743589744,4219.48717948718,3998.46153846154,4143.07692307692,1664,1692,46.512,46.4227066040039,0,0,0,0,2/8/2015 6:21:02 AM,
60,0,0,4521.02564102564,4005.12820512821,4004.10256410256,4277.94871794872,4571.28205128205,4443.58974358974,4311.79487179487,4400,4649.23076923077,4164.61538461538,4157.4358974359,4213.84615384615,4023.07692307692,4155.89743589744,1663,1692,46.52,46.4227066040039,0,0,0,0,2/8/2015 6:21:02 AM,
61,0,0,4508.71794871795,4004.10256410256,4001.02564102564,4280,4566.15384615385,4440.51282051282,4314.35897435897,4401.53846153846,4656.92307692308,4163.07692307692,4177.94871794872,4212.82051282051,4036.92307692308,4148.20512820513,1663,1690,46.528,46.4227066040039,0,0,0,0,2/8/2015 6:21:02 AM,
62,0,0,4501.53846153846,3997.94871794872,4001.02564102564,4277.94871794872,4571.79487179487,4434.35897435897,4317.94871794872,4393.84615384615,4647.17948717949,4149.23076923077,4157.4358974359,4216.92307692308,4020.51282051282,4148.71794871795,1662,1691,46.535,46.4227066040039,0,0,0,0,2/8/2015 6:21:02 AM,
63,0,0,4516.41025641026,4002.5641025641,4004.61538461539,4280,4566.66666666667,4432.30769230769,4320,4386.66666666667,4641.53846153846,4152.30769230769,4141.02564102564,4220,4006.66666666667,4150.76923076923,1663,1691,46.543,46.4227066040039,0,0,0,0,2/8/2015 6:21:02 AM,
64,0,449,4525.64102564103,4010.25641025641,4003.07692307692,4290.25641025641,4555.89743589744,4429.74358974359,4318.97435897436,4388.71794871795,4652.82051282051,4167.69230769231,4166.66666666667,4208.71794871795,4027.17948717949,4163.07692307692,1662,1692,46.551,46.4227066040039,0,0,0,0,2/8/2015 6:21:02 AM,
65,0,445,4510.76923076923,4008.71794871795,3995.38461538462,4290.76923076923,4566.66666666667,4425.64102564103,4320,4393.33333333333,4660,4171.79487179487,4178.46153846154,4198.46153846154,4049.74358974359,4171.79487179487,1662,1691,46.559,46.4227066040039,0,0,0,0,2/8/2015 6:21:02 AM,
66,0,465,4488.20512820513,3993.84615384615,3998.46153846154,4282.05128205128,4572.30769230769,4424.10256410256,4318.46153846154,4395.38461538462,4657.94871794872,4164.61538461538,4154.35897435897,4209.23076923077,4033.84615384615,4144.10256410256,1661,1692,46.567,46.5478134155273,0,0,0,0,2/8/2015 6:21:02 AM,
67,0,493,4483.58974358974,3989.23076923077,4008.71794871795,4284.10256410256,4571.79487179487,4427.17948717949,4312.82051282051,4401.53846153846,4656.41025641026,4157.94871794872,4151.79487179487,4222.05128205128,4014.35897435898,4130.76923076923,1663,1691,46.574,46.5478134155273,0,0,0,0,2/8/2015 6:21:02 AM,
68,0,475,4498.97435897436,4002.5641025641,4005.12820512821,4293.84615384615,4573.33333333333,4430.76923076923,4311.79487179487,4407.17948717949,4656.41025641026,4152.82051282051,4169.74358974359,4217.94871794872,4031.79487179487,4172.82051282051,1662,1692,46.582,46.5478134155273,0,0,0,0,2/8/2015 6:21:02 AM,
69,0,463,4510.76923076923,3997.4358974359,3993.33333333333,4294.8717948718,4561.02564102564,4426.15384615385,4313.33333333333,4404.61538461538,4657.4358974359,4155.38461538462,4172.30769230769,4204.61538461538,4052.30769230769,4197.4358974359,1663,1692,46.59,46.5478134155273,0,0,0,0,2/8/2015 6:21:02 AM,
70,0,480,4502.05128205128,3984.61538461539,3986.66666666667,4297.94871794872,4556.41025641026,4426.66666666667,4313.33333333333,4399.48717948718,4651.28205128205,4171.79487179487,4169.23076923077,4194.8717948718,4043.58974358974,4168.20512820513,1662,1691,46.598,46.5790901184082,0,0,0,0,2/8/2015 6:21:02 AM,
71,0,0,4488.20512820513,3999.48717948718,3986.15384615385,4306.66666666667,4576.41025641026,4442.5641025641,4312.30769230769,4400,4646.66666666667,4183.07692307692,4172.30769230769,4196.92307692308,4031.79487179487,4144.10256410256,1662,1692,46.606,46.5790901184082,0,0,0,0,2/8/2015 6:21:02 AM,
72,0,410,4494.8717948718,4020.51282051282,3992.82051282051,4311.28205128205,4575.38461538462,4442.5641025641,4312.82051282051,4398.97435897436,4652.82051282051,4171.28205128205,4169.74358974359,4207.17948717949,4032.82051282051,4143.58974358974,1664,1692,46.614,46.5790901184082,0,0,0,0,2/8/2015 6:21:02 AM,
73,0,426,4508.71794871795,4022.05128205128,4004.61538461539,4312.82051282051,4554.8717948718,4429.74358974359,4315.38461538462,4393.33333333333,4660,4153.84615384615,4174.35897435897,4215.38461538462,4036.92307692308,4148.71794871795,1663,1693,46.621,46.5790901184082,0,0,0,0,2/8/2015 6:21:02 AM,
74,0,429,4509.23076923077,4019.48717948718,4006.66666666667,4309.23076923077,4561.53846153846,4432.82051282051,4317.94871794872,4395.89743589744,4660,4156.41025641026,4173.84615384615,4220,4035.38461538462,4152.82051282051,1664,1693,46.629,46.5790901184082,0,0,0,0,2/8/2015 6:21:02 AM,
75,0,456,4503.58974358974,4018.97435897436,4003.58974358974,4308.20512820513,4585.12820512821,4445.64102564103,4318.97435897436,4401.53846153846,4663.07692307692,4169.74358974359,4155.89743589744,4213.33333333333,4032.30769230769,4165.64102564103,1663,1694,46.637,46.5790901184082,0,0,0,0,2/8/2015 6:21:02 AM,
76,0,414,4510.25641025641,4016.41025641026,4004.61538461539,4318.97435897436,4583.07692307692,4446.66666666667,4318.46153846154,4405.12820512821,4664.61538461539,4168.20512820513,4171.28205128205,4204.10256410256,4041.02564102564,4177.94871794872,1665,1694,46.645,46.5790901184082,0,0,0,0,2/8/2015 6:21:02 AM,
77,0,437,4522.5641025641,4017.4358974359,3996.41025641026,4328.20512820513,4558.97435897436,4440.51282051282,4318.97435897436,4407.69230769231,4653.84615384615,4157.4358974359,4203.58974358974,4209.23076923077,4055.89743589744,4154.8717948718,1664,1695,46.653,46.5790901184082,0,0,0,0,2/8/2015 6:21:02 AM,
78,0,429,4507.17948717949,4017.4358974359,3988.71794871795,4319.48717948718,4551.79487179487,4441.02564102564,4319.48717948718,4409.23076923077,4653.33333333333,4155.38461538462,4190.25641025641,4219.48717948718,4047.69230769231,4137.94871794872,1665,1695,46.66,46.5790901184082,0,0,0,0,2/8/2015 6:21:02 AM,
79,0,456,4479.48717948718,4009.74358974359,4001.02564102564,4305.64102564103,4568.71794871795,4446.66666666667,4318.97435897436,4417.94871794872,4666.15384615385,4160,4170.25641025641,4215.89743589744,4031.79487179487,4170.25641025641,1664,1695,46.668,46.5790901184082,0,0,0,0,2/8/2015 6:21:02 AM,
80,0,414,4490.76923076923,4008.20512820513,4007.17948717949,4308.20512820513,4586.15384615385,4447.17948717949,4318.46153846154,4422.05128205128,4666.66666666667,4164.10256410256,4186.66666666667,4203.58974358974,4041.53846153846,4182.5641025641,1665,1695,46.676,46.5790901184082,0,0,0,0,2/8/2015 6:21:02 AM,
81,0,437,4523.07692307692,4018.46153846154,3998.97435897436,4318.46153846154,4583.07692307692,4440.51282051282,4317.94871794872,4413.33333333333,4658.46153846154,4171.28205128205,4190.25641025641,4202.5641025641,4044.10256410256,4158.46153846154,1666,1693,46.684,46.5790901184082,0,0,0,0,2/8/2015 6:21:02 AM,
82,0,429,4530.25641025641,4025.12820512821,4001.53846153846,4321.02564102564,4565.64102564103,4444.10256410256,4318.46153846154,4408.20512820513,4661.53846153846,4172.82051282051,4177.94871794872,4202.05128205128,4037.4358974359,4171.79487179487,1665,1695,46.692,46.672924041748,0,0,0,0,2/8/2015 6:21:02 AM,
83,0,456,4523.07692307692,4028.20512820513,4007.69230769231,4326.15384615385,4573.33333333333,4458.97435897436,4317.94871794872,4413.33333333333,4668.71794871795,4161.02564102564,4194.8717948718,4201.02564102564,4054.35897435898,4194.35897435897,1666,1694,46.7,46.672924041748,0,0,0,0,2/8/2015 6:21:02 AM,
84,0,414,4518.97435897436,4035.38461538462,4008.71794871795,4331.79487179487,4590.76923076923,4462.5641025641,4317.94871794872,4415.89743589744,4667.17948717949,4150.76923076923,4209.74358974359,4214.35897435897,4062.05128205128,4166.15384615385,1664,1695,46.707,46.672924041748,0,0,0,0,2/8/2015 6:21:02 AM,
85,0,437,4524.10256410256,4038.97435897436,4015.38461538462,4331.28205128205,4579.48717948718,4456.92307692308,4317.94871794872,4413.33333333333,4663.58974358974,4151.28205128205,4191.79487179487,4224.10256410256,4043.07692307692,4161.53846153846,1666,1695,46.715,46.672924041748,0,0,0,0,2/8/2015 6:21:02 AM,
86,0,429,4524.10256410256,4031.79487179487,4017.94871794872,4328.71794871795,4576.41025641026,4456.92307692308,4318.97435897436,4412.30769230769,4662.05128205128,4153.33333333333,4178.46153846154,4209.74358974359,4043.58974358974,4195.89743589744,1665,1694,46.723,46.672924041748,0,0,0,0,2/8/2015 6:21:02 AM,
87,0,456,4514.35897435897,4022.5641025641,4005.12820512821,4318.97435897436,4591.28205128205,4455.38461538462,4320,4411.79487179487,4664.10256410256,4159.48717948718,4186.66666666667,4198.46153846154,4050.76923076923,4164.61538461538,1666,1694,46.731,46.672924041748,0,0,0,0,2/8/2015 6:21:02 AM,
88,0,414,4516.41025641026,4026.15384615385,3989.23076923077,4309.23076923077,4570.25641025641,4445.12820512821,4320,4420,4666.15384615385,4167.69230769231,4187.17948717949,4201.53846153846,4033.33333333333,4133.33333333333,1666,1695,46.739,46.672924041748,0,0,0,0,2/8/2015 6:21:02 AM,
89,0,437,4518.97435897436,4037.94871794872,3990.25641025641,4315.89743589744,4543.07692307692,4442.5641025641,4319.48717948718,4427.69230769231,4661.53846153846,4159.48717948718,4177.4358974359,4200,4021.53846153846,4179.48717948718,1666,1695,46.746,46.672924041748,0,0,0,0,2/8/2015 6:21:02 AM,
90,0,429,4507.69230769231,4035.89743589744,4003.07692307692,4329.74358974359,4550.25641025641,4448.20512820513,4320,4420,4656.41025641026,4143.58974358974,4177.4358974359,4198.46153846154,4031.28205128205,4195.89743589744,1666,1694,46.754,46.672924041748,0,0,0,0,2/8/2015 6:21:02 AM,
91,0,456,4505.12820512821,4025.64102564103,3996.41025641026,4323.07692307692,4555.38461538462,4444.61538461538,4320,4412.30769230769,4662.5641025641,4147.17948717949,4173.84615384615,4200,4040.51282051282,4143.58974358974,1668,1695,46.762,46.672924041748,0,0,0,0,2/8/2015 6:21:02 AM,
92,0,414,4504.61538461538,4028.20512820513,3983.58974358974,4314.8717948718,4550.25641025641,4441.02564102564,4319.48717948718,4409.74358974359,4668.20512820513,4158.97435897436,4173.33333333333,4196.92307692308,4045.12820512821,4135.89743589744,1667,1693,46.771,46.672924041748,0,0,0,0,2/8/2015 6:21:02 AM,
93,0,437,4493.33333333333,4033.33333333333,3995.38461538462,4321.02564102564,4550.25641025641,4440.51282051282,4319.48717948718,4404.10256410256,4656.41025641026,4150.25641025641,4182.05128205128,4201.02564102564,4043.07692307692,4168.71794871795,1668,1692,46.78,46.672924041748,0,0,0,0,2/8/2015 6:21:02 AM,
94,0,429,4507.17948717949,4022.5641025641,4003.58974358974,4317.94871794872,4546.66666666667,4431.28205128205,4319.48717948718,4402.05128205128,4643.58974358974,4132.82051282051,4174.35897435897,4205.64102564103,4025.12820512821,4171.79487179487,1668,1693,46.788,46.672924041748,0,0,0,0,2/8/2015 6:21:02 AM,
95,0,456,4532.30769230769,4014.8717948718,3990.25641025641,4321.53846153846,4553.84615384615,4424.10256410256,4319.48717948718,4409.23076923077,4648.71794871795,4138.97435897436,4166.66666666667,4193.33333333333,4017.4358974359,4188.71794871795,1669,1692,46.794,46.672924041748,0,0,0,0,2/8/2015 6:21:02 AM,
96,0,414,4510.76923076923,4021.53846153846,3982.5641025641,4331.79487179487,4559.48717948718,4426.66666666667,4319.48717948718,4413.84615384615,4660,4157.4358974359,4181.53846153846,4178.46153846154,4040.51282051282,4195.38461538462,1668,1692,46.802,46.672924041748,0,0,0,0,2/8/2015 6:21:02 AM,
97,0,437,4480,4029.23076923077,3991.28205128205,4327.17948717949,4546.15384615385,4428.20512820513,4319.48717948718,4416.92307692308,4661.02564102564,4155.89743589744,4182.05128205128,4185.64102564103,4052.30769230769,4165.12820512821,1669,1691,46.81,46.672924041748,0,0,0,0,2/8/2015 6:21:02 AM,
98,0,429,4497.4358974359,4036.92307692308,4001.02564102564,4324.10256410256,4555.89743589744,4441.02564102564,4319.48717948718,4421.02564102564,4658.46153846154,4141.53846153846,4163.58974358974,4201.53846153846,4032.82051282051,4164.10256410256,1668,1690,46.818,46.7980308532715,0,0,0,0,2/8/2015 6:21:02 AM,
99,0,456,4511.28205128205,4043.07692307692,4006.66666666667,4336.92307692308,4576.92307692308,4457.94871794872,4319.48717948718,4423.58974358974,4654.8717948718,4137.94871794872,4173.84615384615,4207.69230769231,4028.20512820513,4174.35897435897,1668,1691,46.827,46.7980308532715,0,0,0,0,2/8/2015 6:21:02 AM,
100,0,414,4490.25641025641,4037.94871794872,4005.12820512821,4337.94871794872,4562.5641025641,4452.82051282051,4319.48717948718,4425.12820512821,4651.79487179487,4143.07692307692,4188.71794871795,4204.10256410256,4048.20512820513,4153.33333333333,1668,1691,46.835,46.7980308532715,0,0,0,0,2/8/2015 6:21:02 AM,
101,0,437,4487.17948717949,4038.97435897436,4004.10256410256,4336.41025641026,4543.58974358974,4438.46153846154,4319.48717948718,4424.61538461538,4660,4153.33333333333,4182.5641025641,4202.05128205128,4046.66666666667,4151.28205128205,1667,1693,46.842,46.7980308532715,0,0,0,0,2/8/2015 6:21:02 AM,
102,0,429,4509.74358974359,4051.79487179487,4013.33333333333,4359.48717948718,4550.25641025641,4442.5641025641,4319.48717948718,4420.51282051282,4668.71794871795,4161.53846153846,4183.07692307692,4209.23076923077,4028.20512820513,4184.61538461538,1668,1692,46.849,46.7980308532715,0,0,0,0,2/8/2015 6:21:02 AM,
103,0,456,4521.02564102564,4052.82051282051,4015.89743589744,4368.71794871795,4560.51282051282,4446.66666666667,4319.48717948718,4419.48717948718,4665.12820512821,4157.94871794872,4190.25641025641,4213.84615384615,4034.35897435898,4206.15384615385,1666,1693,46.857,46.7980308532715,0,0,0,0,2/8/2015 6:21:02 AM,
104,0,414,4520,4051.79487179487,4010.25641025641,4358.46153846154,4565.12820512821,4436.41025641026,4319.48717948718,4419.48717948718,4663.07692307692,4153.33333333333,4196.41025641026,4206.15384615385,4053.33333333333,4211.28205128205,1667,1693,46.865,46.7980308532715,0,0,0,0,2/8/2015 6:21:02 AM,
105,0,437,4521.02564102564,4063.07692307692,4010.25641025641,4361.53846153846,4575.89743589744,4434.35897435897,4319.48717948718,4419.48717948718,4664.61538461539,4155.38461538462,4196.41025641026,4195.38461538462,4054.8717948718,4198.46153846154,1665,1693,46.873,46.7980308532715,0,0,0,0,2/8/2015 6:21:02 AM,
106,0,429,4523.58974358974,4060.51282051282,4013.84615384615,4366.15384615385,4587.17948717949,4449.23076923077,4319.48717948718,4423.07692307692,4663.58974358974,4154.35897435897,4192.82051282051,4202.5641025641,4041.02564102564,4160.51282051282,1664,1694,46.88,46.7980308532715,0,0,0,0,2/8/2015 6:21:03 AM,
107,0,456,4526.66666666667,4047.69230769231,4013.33333333333,4362.5641025641,4578.97435897436,4453.33333333333,4319.48717948718,4427.69230769231,4667.17948717949,4152.30769230769,4189.74358974359,4218.46153846154,4034.35897435898,4149.74358974359,1664,1693,46.887,46.7980308532715,0,0,0,0,2/8/2015 6:21:03 AM,
108,0,414,4516.41025641026,4051.79487179487,4011.28205128205,4366.15384615385,4553.84615384615,4442.5641025641,4319.48717948718,4430.25641025641,4672.30769230769,4157.94871794872,4175.89743589744,4214.35897435897,4043.58974358974,4180.51282051282,1664,1692,46.895,46.7980308532715,0,0,0,0,2/8/2015 6:21:03 AM,
109,0,437,4501.02564102564,4061.02564102564,4014.8717948718,4369.23076923077,4547.17948717949,4441.53846153846,4319.48717948718,4433.33333333333,4666.15384615385,4154.8717948718,4152.82051282051,4204.61538461538,4046.15384615385,4191.79487179487,1664,1693,46.903,46.7980308532715,0,0,0,0,2/8/2015 6:21:03 AM,
110,0,429,4502.5641025641,4060,4016.92307692308,4364.61538461538,4565.12820512821,4444.61538461538,4319.48717948718,4434.35897435897,4659.48717948718,4144.61538461538,4135.38461538462,4213.33333333333,4037.4358974359,4173.84615384615,1663,1694,46.911,46.7980308532715,0,0,0,0,2/8/2015 6:21:03 AM,
111,0,456,4510.76923076923,4057.4358974359,4021.53846153846,4374.8717948718,4581.53846153846,4432.82051282051,4319.48717948718,4427.69230769231,4666.66666666667,4149.74358974359,4128.20512820513,4222.05128205128,4037.94871794872,4177.4358974359,1663,1692,46.919,46.7980308532715,0,0,0,0,2/8/2015 6:21:03 AM,
112,0,414,4527.17948717949,4062.05128205128,4028.20512820513,4382.5641025641,4578.97435897436,4421.53846153846,4319.48717948718,4420,4672.30769230769,4156.41025641026,4133.33333333333,4217.4358974359,4044.61538461539,4200,1662,1694,46.926,46.7980308532715,0,0,0,0,2/8/2015 6:21:03 AM,
113,0,437,4545.12820512821,4071.79487179487,4025.12820512821,4375.89743589744,4557.94871794872,4422.5641025641,4319.48717948718,4416.41025641026,4667.69230769231,4151.79487179487,4146.66666666667,4217.94871794872,4046.66666666667,4203.58974358974,1664,1693,46.934,46.7980308532715,0,0,0,0,2/8/2015 6:21:03 AM,
114,0,429,4543.58974358974,4078.97435897436,4015.89743589744,4382.5641025641,4561.53846153846,4432.82051282051,4319.48717948718,4419.48717948718,4669.23076923077,4154.35897435897,4154.8717948718,4214.8717948718,4062.05128205128,4211.79487179487,1662,1694,46.942,46.7980308532715,0,0,0,0,2/8/2015 6:21:03 AM,
115,0,456,4533.84615384615,4080,4012.30769230769,4395.89743589744,4594.8717948718,4444.61538461538,4319.48717948718,4427.17948717949,4671.79487179487,4151.28205128205,4153.84615384615,4211.28205128205,4073.84615384615,4209.74358974359,1663,1693,46.95,46.7980308532715,0,0,0,0,2/8/2015 6:21:03 AM,
116,0,414,4524.61538461538,4072.30769230769,4013.33333333333,4389.74358974359,4598.46153846154,4440,4319.48717948718,4427.17948717949,4662.05128205128,4141.53846153846,4141.02564102564,4228.20512820513,4045.64102564103,4168.20512820513,1662,1694,46.958,46.7980308532715,0,0,0,0,2/8/2015 6:21:03 AM,
117,0,437,4509.74358974359,4055.89743589744,4013.84615384615,4379.48717948718,4565.64102564103,4421.02564102564,4319.48717948718,4421.02564102564,4656.41025641026,4149.74358974359,4128.20512820513,4229.23076923077,4022.05128205128,4157.94871794872,1663,1694,46.965,46.7980308532715,0,0,0,0,2/8/2015 6:21:03 AM,
118,0,429,4509.23076923077,4044.61538461539,4013.33333333333,4378.97435897436,4550.76923076923,4417.4358974359,4319.48717948718,4417.94871794872,4662.05128205128,4156.92307692308,4142.5641025641,4211.28205128205,4039.48717948718,4191.28205128205,1663,1692,46.973,46.7980308532715,0,0,0,0,2/8/2015 6:21:03 AM,
119,0,456,4527.17948717949,4051.28205128205,4007.69230769231,4380.51282051282,4560,4430.76923076923,4319.48717948718,4420.51282051282,4664.61538461539,4147.17948717949,4163.07692307692,4211.28205128205,4054.35897435898,4202.5641025641,1662,1694,46.981,46.7980308532715,0,0,0,0,2/8/2015 6:21:03 AM,
120,0,414,4526.66666666667,4059.48717948718,4004.10256410256,4382.5641025641,4574.35897435897,4428.71794871795,4319.48717948718,4425.64102564103,4668.20512820513,4144.61538461538,4153.84615384615,4217.94871794872,4048.71794871795,4205.64102564103,1662,1695,46.989,46.7980308532715,0,0,0,0,2/8/2015 6:21:03 AM,
121,0,437,4517.94871794872,4056.41025641026,4007.17948717949,4381.53846153846,4583.58974358974,4423.07692307692,4320,4423.07692307692,4672.82051282051,4154.8717948718,4146.66666666667,4211.79487179487,4049.23076923077,4209.74358974359,1663,1696,46.997,46.7980308532715,0,0,0,0,2/8/2015 6:21:03 AM,
122,0,429,4542.5641025641,4057.4358974359,4008.20512820513,4383.58974358974,4585.64102564103,4437.94871794872,4319.48717948718,4412.30769230769,4666.15384615385,4161.02564102564,4166.15384615385,4214.35897435897,4058.46153846154,4201.53846153846,1663,1695,47.006,46.7980308532715,0,0,0,0,2/8/2015 6:21:03 AM,
123,0,456,4557.94871794872,4069.74358974359,4004.61538461539,4392.82051282051,4590.25641025641,4445.12820512821,4319.48717948718,4410.76923076923,4658.46153846154,4151.79487179487,4178.46153846154,4220.51282051282,4064.10256410256,4200.51282051282,1662,1696,47.013,46.7980308532715,0,0,0,0,2/8/2015 6:21:03 AM,
124,0,414,4525.64102564103,4069.74358974359,4005.64102564103,4396.41025641026,4577.4358974359,4427.69230769231,4320,4413.33333333333,4665.12820512821,4135.89743589744,4169.74358974359,4215.38461538462,4058.97435897436,4200.51282051282,1664,1694,47.021,46.7980308532715,0,0,0,0,2/8/2015 6:21:03 AM,
125,0,437,4498.46153846154,4054.8717948718,4012.30769230769,4389.74358974359,4548.20512820513,4426.15384615385,4321.02564102564,4411.79487179487,4674.8717948718,4133.84615384615,4161.02564102564,4217.4358974359,4044.61538461539,4196.41025641026,1662,1694,47.029,46.7980308532715,0,0,0,0,2/8/2015 6:21:03 AM,
126,0,429,4503.58974358974,4051.28205128205,4015.38461538462,4381.02564102564,4552.30769230769,4445.12820512821,4321.02564102564,4415.89743589744,4674.8717948718,4141.53846153846,4167.69230769231,4220,4043.07692307692,4208.71794871795,1663,1694,47.036,46.7980308532715,0,0,0,0,2/8/2015 6:21:03 AM,
127,0,456,4506.66666666667,4055.89743589744,4006.15384615385,4384.61538461538,4585.12820512821,4448.71794871795,4321.02564102564,4418.97435897436,4672.30769230769,4141.53846153846,4174.8717948718,4205.12820512821,4053.33333333333,4204.10256410256,1663,1693,47.044,46.7980308532715,0,0,0,0,2/8/2015 6:21:03 AM,
128,0,414,4499.48717948718,4052.30769230769,3988.71794871795,4387.69230769231,4578.97435897436,4437.4358974359,4321.02564102564,4415.38461538462,4672.82051282051,4138.46153846154,4164.61538461538,4200,4044.10256410256,4164.10256410256,1663,1694,47.051,46.7980308532715,0,0,0,0,2/8/2015 6:21:03 AM,
0,0,449,4498.46153846154,4050.25641025641,3988.20512820513,4382.5641025641,4551.79487179487,4438.97435897436,4321.02564102564,4412.82051282051,4668.20512820513,4139.48717948718,4166.66666666667,4214.8717948718,4035.38461538462,4172.30769230769,1664,1693,47.059,46.7980308532715,0,0,0,0,2/8/2015 6:21:03 AM,
1,0,445,4503.07692307692,4057.94871794872,4003.07692307692,4389.74358974359,4558.46153846154,4444.10256410256,4321.02564102564,4409.74358974359,4659.48717948718,4142.05128205128,4191.28205128205,4217.94871794872,4053.33333333333,4235.89743589744,1663,1693,47.068,47.0482444763184,0,0,0,0,2/8/2015 6:21:03 AM,
2,0,465,4515.89743589744,4063.07692307692,4013.33333333333,4402.5641025641,4566.66666666667,4436.41025641026,4321.02564102564,4409.23076923077,4661.02564102564,4143.07692307692,4201.53846153846,4212.30769230769,4069.74358974359,4237.4358974359,1664,1693,47.076,47.0482444763184,0,0,0,0,2/8/2015 6:21:03 AM,
3,0,493,4531.79487179487,4058.97435897436,4017.94871794872,4394.8717948718,4551.79487179487,4425.64102564103,4320.51282051282,4404.10256410256,4664.61538461539,4137.94871794872,4180.51282051282,4225.64102564103,4061.53846153846,4175.89743589744,1663,1694,47.084,47.0482444763184,0,0,0,0,2/8/2015 6:21:03 AM,
4,0,475,4545.12820512821,4060,4017.4358974359,4382.05128205128,4555.38461538462,4427.17948717949,4320.51282051282,4392.82051282051,4657.4358974359,4133.33333333333,4181.53846153846,4237.4358974359,4058.46153846154,4173.33333333333,1664,1692,47.092,47.0482444763184,0,0,0,0,2/8/2015 6:21:03 AM,
5,0,463,4560,4072.30769230769,4007.69230769231,4398.97435897436,4586.15384615385,4438.97435897436,4321.02564102564,4396.41025641026,4657.4358974359,4135.89743589744,4203.07692307692,4218.97435897436,4064.61538461539,4232.82051282051,1663,1694,47.098,47.0795211791992,0,0,0,0,2/8/2015 6:21:03 AM,
6,0,480,4552.30769230769,4074.8717948718,3996.92307692308,4406.66666666667,4577.4358974359,4451.79487179487,4321.02564102564,4411.28205128205,4669.23076923077,4135.89743589744,4192.30769230769,4198.46153846154,4048.71794871795,4245.12820512821,1664,1692,47.106,47.0795211791992,0,0,0,0,2/8/2015 6:21:03 AM,
7,0,0,4517.4358974359,4056.41025641026,4000.51282051282,4381.53846153846,4540,4458.46153846154,4320,4419.48717948718,4674.35897435897,4133.33333333333,4177.4358974359,4206.15384615385,4034.35897435898,4185.12820512821,1663,1693,47.114,47.0795211791992,0,0,0,0,2/8/2015 6:21:03 AM,
8,0,410,4502.05128205128,4044.61538461539,4003.07692307692,4371.28205128205,4542.05128205128,4458.46153846154,4322.5641025641,4426.15384615385,4673.84615384615,4135.38461538462,4190.25641025641,4210.76923076923,4037.4358974359,4156.41025641026,1663,1692,47.122,47.0795211791992,0,0,0,0,2/8/2015 6:21:03 AM,
9,0,426,4508.20512820513,4053.84615384615,3995.89743589744,4386.66666666667,4568.20512820513,4457.94871794872,4325.64102564103,4429.74358974359,4676.41025641026,4138.46153846154,4184.10256410256,4189.74358974359,4026.15384615385,4197.4358974359,1663,1692,47.131,47.0795211791992,0,0,0,0,2/8/2015 6:21:03 AM,
10,0,429,4509.74358974359,4065.64102564103,3990.25641025641,4391.28205128205,4572.82051282051,4459.48717948718,4325.12820512821,4420.51282051282,4676.41025641026,4143.58974358974,4171.28205128205,4180,4016.41025641026,4226.66666666667,1662,1694,47.138,47.0795211791992,0,0,0,0,2/8/2015 6:21:03 AM,
11,0,456,4515.38461538462,4064.61538461539,3994.35897435898,4381.53846153846,4569.74358974359,4458.46153846154,4324.10256410256,4414.35897435897,4668.71794871795,4146.15384615385,4187.69230769231,4191.79487179487,4027.69230769231,4189.74358974359,1663,1694,47.146,47.0795211791992,0,0,0,0,2/8/2015 6:21:03 AM,
12,0,408,4521.02564102564,4055.38461538462,4008.20512820513,4378.46153846154,4577.4358974359,4461.02564102564,4324.61538461538,4411.28205128205,4658.46153846154,4141.53846153846,4192.82051282051,4208.71794871795,4029.74358974359,4151.79487179487,1662,1695,47.154,47.0795211791992,0,0,0,0,2/8/2015 6:21:03 AM,
13,0,437,4528.71794871795,4056.41025641026,4017.94871794872,4383.58974358974,4568.20512820513,4463.07692307692,4324.10256410256,4405.64102564103,4655.38461538462,4138.46153846154,4187.17948717949,4214.8717948718,4032.82051282051,4181.53846153846,1663,1694,47.161,47.0795211791992,0,0,0,0,2/8/2015 6:21:03 AM,
14,0,429,4543.07692307692,4070.76923076923,4006.15384615385,4392.30769230769,4555.89743589744,4452.82051282051,4323.07692307692,4408.71794871795,4661.53846153846,4141.53846153846,4205.12820512821,4203.07692307692,4048.20512820513,4220,1663,1695,47.169,47.0795211791992,0,0,0,0,2/8/2015 6:21:03 AM,
15,0,456,4529.74358974359,4070.25641025641,3987.17948717949,4402.5641025641,4564.10256410256,4445.12820512821,4323.58974358974,4412.82051282051,4665.64102564103,4142.05128205128,4202.05128205128,4191.79487179487,4015.38461538462,4212.30769230769,1663,1695,47.177,47.0795211791992,0,0,0,0,2/8/2015 6:21:03 AM,
16,0,0,4488.71794871795,4059.48717948718,3989.74358974359,4397.4358974359,4565.12820512821,4455.89743589744,4323.58974358974,4412.82051282051,4665.12820512821,4134.8717948718,4191.28205128205,4197.94871794872,3969.23076923077,4187.17948717949,1663,1695,47.184,47.0795211791992,0,0,0,0,2/8/2015 6:21:03 AM,
17,0,0,4486.15384615385,4057.94871794872,4000.51282051282,4376.41025641026,4560.51282051282,4462.05128205128,4323.58974358974,4415.38461538462,4664.10256410256,4134.8717948718,4211.79487179487,4202.05128205128,3982.05128205128,4177.94871794872,1663,1694,47.192,47.1733512878418,0,0,0,0,2/8/2015 6:21:03 AM,
18,0,0,4517.4358974359,4055.38461538462,3989.23076923077,4367.69230769231,4568.71794871795,4448.71794871795,4323.58974358974,4417.4358974359,4661.53846153846,4143.07692307692,4215.89743589744,4197.94871794872,3994.8717948718,4187.17948717949,1663,1693,47.2,47.1733512878418,0,0,0,0,2/8/2015 6:21:03 AM,
19,0,0,4528.20512820513,4052.30769230769,3982.05128205128,4387.69230769231,4564.61538461538,4444.10256410256,4323.58974358974,4421.53846153846,4666.15384615385,4142.5641025641,4197.94871794872,4200.51282051282,3968.71794871795,4198.46153846154,1663,1692,47.208,47.1733512878418,0,0,0,0,2/8/2015 6:21:03 AM,
20,0,0,4518.46153846154,4057.94871794872,3995.89743589744,4401.53846153846,4540.51282051282,4457.4358974359,4323.07692307692,4431.28205128205,4675.38461538462,4134.35897435897,4201.53846153846,4202.5641025641,3970.76923076923,4196.41025641026,1663,1692,47.216,47.1733512878418,0,0,0,0,2/8/2015 6:21:03 AM,
21,0,0,4508.71794871795,4062.5641025641,4001.53846153846,4391.79487179487,4549.23076923077,4459.48717948718,4324.10256410256,4427.69230769231,4673.33333333333,4132.82051282051,4204.10256410256,4198.46153846154,4000,4184.10256410256,1664,1691,47.223,47.1733512878418,0,0,0,0,2/8/2015 6:21:03 AM,
22,0,0,4514.35897435897,4064.61538461539,3992.30769230769,4386.66666666667,4572.82051282051,4445.64102564103,4323.58974358974,4414.35897435897,4664.61538461539,4135.38461538462,4200.51282051282,4201.02564102564,3996.92307692308,4186.15384615385,1664,1692,47.231,47.1733512878418,0,0,0,0,2/8/2015 6:21:03 AM,
23,0,0,4522.05128205128,4070.76923076923,3989.74358974359,4388.71794871795,4558.46153846154,4441.53846153846,4322.5641025641,4411.28205128205,4656.41025641026,4135.38461538462,4218.46153846154,4205.12820512821,3979.48717948718,4193.84615384615,1664,1692,47.239,47.1733512878418,0,0,0,0,2/8/2015 6:21:03 AM,
24,0,0,4510.25641025641,4064.61538461539,3991.28205128205,4387.17948717949,4545.12820512821,4445.64102564103,4326.15384615385,4408.20512820513,4648.71794871795,4134.35897435897,4226.66666666667,4204.10256410256,3984.61538461539,4198.46153846154,1663,1694,47.249,47.1733512878418,0,0,0,0,2/8/2015 6:21:03 AM,
25,0,0,4500.51282051282,4050.76923076923,3989.74358974359,4388.20512820513,4559.48717948718,4438.97435897436,4329.23076923077,4404.10256410256,4650.25641025641,4135.89743589744,4206.66666666667,4201.53846153846,4000.51282051282,4203.07692307692,1665,1693,47.257,47.1733512878418,0,0,0,0,2/8/2015 6:21:03 AM,
26,0,0,4510.25641025641,4052.30769230769,3989.74358974359,4385.64102564103,4560,4431.28205128205,4325.64102564103,4414.8717948718,4663.07692307692,4142.05128205128,4203.07692307692,4201.53846153846,4025.64102564103,4197.94871794872,1663,1694,47.265,47.1733512878418,0,0,0,0,2/8/2015 6:21:03 AM,
27,0,0,4509.23076923077,4061.02564102564,3982.05128205128,4377.94871794872,4541.53846153846,4436.41025641026,4323.07692307692,4428.71794871795,4669.74358974359,4139.48717948718,4220.51282051282,4201.02564102564,4047.69230769231,4167.17948717949,1664,1694,47.271,47.1733512878418,0,0,0,0,2/8/2015 6:21:03 AM,
28,0,0,4491.79487179487,4060.51282051282,3969.23076923077,4385.12820512821,4530.76923076923,4442.05128205128,4323.58974358974,4422.05128205128,4658.97435897436,4120,4220,4197.94871794872,4033.84615384615,4148.20512820513,1664,1693,47.278,47.1733512878418,0,0,0,0,2/8/2015 6:21:03 AM,
29,0,0,4483.07692307692,4053.84615384615,3978.97435897436,4397.94871794872,4539.48717948718,4442.5641025641,4319.48717948718,4412.82051282051,4644.61538461538,4120,4210.25641025641,4196.41025641026,4009.74358974359,4193.33333333333,1663,1695,47.286,47.1733512878418,0,0,0,0,2/8/2015 6:21:03 AM,
30,0,0,4488.71794871795,4050.25641025641,3998.97435897436,4394.8717948718,4557.4358974359,4444.10256410256,4315.38461538462,4422.05128205128,4650.76923076923,4138.46153846154,4215.89743589744,4197.94871794872,4024.61538461539,4212.82051282051,1664,1694,47.294,47.1733512878418,0,0,0,0,2/8/2015 6:21:03 AM,
31,0,0,4506.66666666667,4050.25641025641,3993.84615384615,4388.20512820513,4554.35897435897,4441.53846153846,4316.41025641026,4427.69230769231,4667.69230769231,4136.41025641026,4214.35897435897,4203.07692307692,4047.69230769231,4152.30769230769,1663,1695,47.302,47.1733512878418,0,0,0,0,2/8/2015 6:21:03 AM,
32,0,0,4515.89743589744,4061.53846153846,3980.51282051282,4400,4532.82051282051,4436.41025641026,4316.92307692308,4419.48717948718,4664.10256410256,4122.05128205128,4195.89743589744,4203.58974358974,4027.17948717949,4141.53846153846,1664,1694,47.31,47.1733512878418,0,0,0,0,2/8/2015 6:21:03 AM,
33,0,0,4500,4071.28205128205,3990.25641025641,4414.35897435897,4532.30769230769,4440.51282051282,4316.41025641026,4416.92307692308,4653.84615384615,4126.15384615385,4201.53846153846,4204.61538461538,4005.12820512821,4208.20512820513,1663,1693,47.319,47.2984580993652,0,0,0,0,2/8/2015 6:21:03 AM,
34,0,0,4508.20512820513,4070.25641025641,4003.07692307692,4405.64102564103,4561.53846153846,4449.74358974359,4316.41025641026,4428.20512820513,4666.15384615385,4137.4358974359,4232.82051282051,4209.74358974359,4033.33333333333,4235.89743589744,1664,1693,47.326,47.2984580993652,0,0,0,0,2/8/2015 6:21:03 AM,
35,0,0,4541.53846153846,4071.79487179487,3994.8717948718,4395.38461538462,4579.48717948718,4449.23076923077,4316.92307692308,4430.76923076923,4675.38461538462,4140.51282051282,4230.76923076923,4209.23076923077,4062.5641025641,4204.61538461538,1664,1693,47.335,47.2984580993652,0,0,0,0,2/8/2015 6:21:03 AM,
36,0,0,4531.28205128205,4070.25641025641,3988.71794871795,4408.20512820513,4564.10256410256,4443.58974358974,4316.92307692308,4422.5641025641,4664.61538461539,4138.46153846154,4198.97435897436,4212.30769230769,4042.05128205128,4180.51282051282,1664,1692,47.341,47.2984580993652,0,0,0,0,2/8/2015 6:21:03 AM,
37,0,0,4502.05128205128,4064.61538461539,3993.84615384615,4415.38461538462,4549.74358974359,4443.58974358974,4316.92307692308,4421.02564102564,4660.51282051282,4137.94871794872,4206.15384615385,4216.92307692308,4011.79487179487,4178.97435897436,1663,1691,47.349,47.2984580993652,0,0,0,0,2/8/2015 6:21:03 AM,
38,0,0,4516.41025641026,4069.23076923077,3990.25641025641,4401.02564102564,4550.25641025641,4443.07692307692,4316.92307692308,4427.17948717949,4662.5641025641,4140.51282051282,4230.25641025641,4206.66666666667,3994.8717948718,4190.76923076923,1664,1691,47.356,47.2984580993652,0,0,0,0,2/8/2015 6:21:03 AM,
39,0,0,4533.84615384615,4076.92307692308,3984.61538461539,4396.92307692308,4554.35897435897,4444.10256410256,4316.92307692308,4431.28205128205,4659.48717948718,4139.48717948718,4218.97435897436,4195.89743589744,3969.23076923077,4205.12820512821,1663,1690,47.364,47.2984580993652,0,0,0,0,2/8/2015 6:21:03 AM,
40,0,0,4513.33333333333,4072.30769230769,3990.25641025641,4410.76923076923,4554.35897435897,4451.79487179487,4316.92307692308,4430.25641025641,4664.10256410256,4135.89743589744,4212.30769230769,4205.12820512821,3971.28205128205,4193.84615384615,1663,1693,47.373,47.2984580993652,0,0,0,0,2/8/2015 6:21:03 AM,
41,0,0,4494.35897435897,4063.07692307692,3992.82051282051,4417.4358974359,4542.05128205128,4450.76923076923,4316.92307692308,4430.25641025641,4676.41025641026,4135.38461538462,4231.79487179487,4214.8717948718,4016.92307692308,4171.28205128205,1664,1691,47.382,47.2984580993652,0,0,0,0,2/8/2015 6:21:03 AM,
42,0,0,4508.20512820513,4062.05128205128,3985.12820512821,4412.82051282051,4538.46153846154,4441.53846153846,4316.92307692308,4427.17948717949,4677.4358974359,4136.92307692308,4238.46153846154,4213.84615384615,4058.97435897436,4191.79487179487,1663,1693,47.39,47.2984580993652,0,0,0,0,2/8/2015 6:21:03 AM,
43,0,0,4531.28205128205,4070.25641025641,3989.74358974359,4410.76923076923,4550.76923076923,4448.71794871795,4316.92307692308,4418.46153846154,4670.25641025641,4142.5641025641,4236.41025641026,4217.94871794872,4076.41025641026,4234.35897435897,1663,1693,47.396,47.2984580993652,0,0,0,0,2/8/2015 6:21:03 AM,
44,0,0,4530.25641025641,4076.41025641026,3989.23076923077,4409.23076923077,4548.20512820513,4455.38461538462,4316.92307692308,4411.28205128205,4664.10256410256,4153.84615384615,4233.33333333333,4221.02564102564,4076.92307692308,4235.89743589744,1664,1692,47.403,47.2984580993652,0,0,0,0,2/8/2015 6:21:03 AM,
45,0,0,4504.61538461538,4065.12820512821,3978.46153846154,4405.12820512821,4540,4444.61538461538,4316.92307692308,4408.20512820513,4661.53846153846,4159.48717948718,4233.33333333333,4216.41025641026,4066.15384615385,4213.33333333333,1664,1693,47.411,47.2984580993652,0,0,0,0,2/8/2015 6:21:03 AM,
46,0,0,4488.20512820513,4052.30769230769,3982.05128205128,4403.58974358974,4545.64102564103,4440.51282051282,4316.92307692308,4415.38461538462,4664.10256410256,4152.82051282051,4247.17948717949,4210.25641025641,4061.02564102564,4198.46153846154,1664,1694,47.419,47.2984580993652,0,0,0,0,2/8/2015 6:21:03 AM,
47,0,0,4491.28205128205,4048.20512820513,3986.66666666667,4405.12820512821,4544.10256410256,4444.61538461538,4316.41025641026,4425.12820512821,4665.12820512821,4138.46153846154,4243.58974358974,4214.35897435897,4057.4358974359,4177.94871794872,1665,1694,47.428,47.2984580993652,0,0,0,0,2/8/2015 6:21:03 AM,
48,0,0,4489.23076923077,4049.74358974359,3975.38461538462,4403.07692307692,4541.53846153846,4441.53846153846,4316.92307692308,4426.66666666667,4665.64102564103,4132.82051282051,4230.76923076923,4221.53846153846,4052.30769230769,4177.4358974359,1664,1692,47.437,47.2984580993652,0,0,0,0,2/8/2015 6:21:03 AM,
49,0,0,4478.97435897436,4049.74358974359,3975.89743589744,4401.02564102564,4555.89743589744,4441.02564102564,4317.4358974359,4425.64102564103,4665.64102564103,4147.17948717949,4244.10256410256,4209.23076923077,4064.61538461539,4212.82051282051,1665,1693,47.444,47.4235687255859,0,0,0,0,2/8/2015 6:21:03 AM,
50,0,0,4474.8717948718,4040,3982.5641025641,4401.53846153846,4551.28205128205,4446.15384615385,4315.38461538462,4430.25641025641,4663.07692307692,4151.79487179487,4249.23076923077,4196.92307692308,4066.15384615385,4211.28205128205,1666,1692,47.452,47.4235687255859,0,0,0,0,2/8/2015 6:21:03 AM,
51,0,0,4484.10256410256,4035.38461538462,3973.84615384615,4398.46153846154,4532.30769230769,4443.07692307692,4312.82051282051,4431.79487179487,4668.20512820513,4139.48717948718,4230.76923076923,4210.76923076923,4038.46153846154,4153.33333333333,1664,1694,47.458,47.4235687255859,0,0,0,0,2/8/2015 6:21:03 AM,
52,0,0,4500.51282051282,4044.10256410256,3975.89743589744,4399.48717948718,4534.8717948718,4437.4358974359,4314.35897435897,4429.74358974359,4673.84615384615,4138.97435897436,4230.76923076923,4229.74358974359,4032.82051282051,4146.15384615385,1665,1693,47.466,47.4235687255859,0,0,0,0,2/8/2015 6:21:03 AM,
53,0,0,4507.69230769231,4046.15384615385,3991.28205128205,4408.71794871795,4548.20512820513,4441.53846153846,4314.8717948718,4426.15384615385,4666.15384615385,4143.07692307692,4246.66666666667,4222.5641025641,4044.10256410256,4217.4358974359,1665,1695,47.474,47.4235687255859,0,0,0,0,2/8/2015 6:21:03 AM,
54,0,0,4505.64102564103,4052.82051282051,3982.05128205128,4414.8717948718,4558.97435897436,4443.58974358974,4312.82051282051,4420.51282051282,4658.97435897436,4142.05128205128,4252.30769230769,4202.05128205128,4032.30769230769,4257.4358974359,1666,1694,47.482,47.4235687255859,0,0,0,0,2/8/2015 6:21:03 AM,
55,0,0,4503.58974358974,4070.76923076923,3964.10256410256,4414.8717948718,4557.94871794872,4429.23076923077,4312.82051282051,4422.05128205128,4663.58974358974,4148.71794871795,4248.20512820513,4195.89743589744,4006.15384615385,4223.07692307692,1665,1694,47.489,47.4235687255859,0,0,0,0,2/8/2015 6:21:03 AM,
56,0,0,4501.02564102564,4066.66666666667,3973.84615384615,4413.33333333333,4545.64102564103,4424.61538461538,4312.30769230769,4427.17948717949,4666.66666666667,4150.76923076923,4236.92307692308,4207.17948717949,3990.25641025641,4186.15384615385,1665,1695,47.497,47.4235687255859,0,0,0,0,2/8/2015 6:21:03 AM,
57,0,0,4489.74358974359,4046.15384615385,3991.79487179487,4410.76923076923,4542.05128205128,4436.41025641026,4311.28205128205,4427.17948717949,4663.58974358974,4136.92307692308,4242.5641025641,4213.33333333333,3995.89743589744,4171.79487179487,1665,1695,47.505,47.4235687255859,0,0,0,0,2/8/2015 6:21:03 AM,
58,0,0,4485.64102564103,4051.79487179487,3988.20512820513,4412.82051282051,4553.33333333333,4438.46153846154,4312.30769230769,4425.64102564103,4664.10256410256,4132.82051282051,4255.89743589744,4202.05128205128,4009.74358974359,4173.33333333333,1666,1694,47.513,47.4235687255859,0,0,0,0,2/8/2015 6:21:03 AM,
59,0,0,4505.64102564103,4071.28205128205,3986.66666666667,4426.15384615385,4557.4358974359,4431.28205128205,4313.33333333333,4420.51282051282,4663.58974358974,4146.15384615385,4239.48717948718,4204.10256410256,4006.66666666667,4199.48717948718,1665,1694,47.521,47.4235687255859,0,0,0,0,2/8/2015 6:21:03 AM,
60,0,0,4515.89743589744,4080,4000.51282051282,4430.25641025641,4550.76923076923,4436.92307692308,4311.79487179487,4414.35897435897,4660.51282051282,4154.8717948718,4234.8717948718,4217.94871794872,4004.61538461539,4227.17948717949,1665,1693,47.528,47.4235687255859,0,0,0,0,2/8/2015 6:21:03 AM,
61,0,0,4501.53846153846,4078.46153846154,4003.07692307692,4424.10256410256,4553.33333333333,4446.66666666667,4311.79487179487,4421.53846153846,4667.69230769231,4157.4358974359,4264.61538461538,4219.48717948718,4022.05128205128,4208.20512820513,1666,1692,47.536,47.4235687255859,0,0,0,0,2/8/2015 6:21:03 AM,
62,0,0,4500,4067.69230769231,4000.51282051282,4423.58974358974,4543.07692307692,4438.97435897436,4313.33333333333,4430.25641025641,4675.38461538462,4151.79487179487,4267.69230769231,4220.51282051282,4022.5641025641,4176.41025641026,1664,1694,47.544,47.4235687255859,0,0,0,0,2/8/2015 6:21:03 AM,
63,0,0,4526.66666666667,4061.02564102564,4002.5641025641,4427.69230769231,4532.82051282051,4429.74358974359,4312.30769230769,4426.66666666667,4662.05128205128,4138.97435897436,4242.5641025641,4225.12820512821,4000.51282051282,4195.89743589744,1666,1694,47.552,47.4235687255859,0,0,0,0,2/8/2015 6:21:03 AM,
64,0,449,4545.12820512821,4077.94871794872,3994.35897435898,4435.38461538462,4570.76923076923,4440,4310.76923076923,4423.58974358974,4652.82051282051,4138.46153846154,4251.28205128205,4217.94871794872,4001.53846153846,4231.28205128205,1665,1695,47.56,47.4235687255859,0,0,0,0,2/8/2015 6:21:03 AM,
65,0,445,4528.71794871795,4088.20512820513,3984.10256410256,4435.38461538462,4600.51282051282,4449.23076923077,4311.28205128205,4430.76923076923,4671.28205128205,4154.8717948718,4273.33333333333,4204.10256410256,4021.53846153846,4228.20512820513,1666,1694,47.568,47.5486755371094,0,0,0,0,2/8/2015 6:21:03 AM,
66,0,465,4496.41025641026,4074.8717948718,3987.69230769231,4425.64102564103,4570.76923076923,4441.53846153846,4312.82051282051,4429.74358974359,4675.89743589744,4157.4358974359,4258.97435897436,4199.48717948718,4019.48717948718,4203.58974358974,1665,1694,47.575,47.5486755371094,0,0,0,0,2/8/2015 6:21:03 AM,
67,0,493,4500,4082.5641025641,3993.84615384615,4428.20512820513,4552.82051282051,4446.66666666667,4313.84615384615,4420.51282051282,4661.02564102564,4143.07692307692,4240,4205.64102564103,4003.07692307692,4192.82051282051,1665,1693,47.583,47.5486755371094,0,0,0,0,2/8/2015 6:21:03 AM,
68,0,475,4542.5641025641,4115.38461538462,3998.97435897436,4446.15384615385,4567.17948717949,4466.66666666667,4313.84615384615,4424.61538461538,4664.10256410256,4142.5641025641,4256.92307692308,4213.33333333333,4005.12820512821,4178.46153846154,1664,1692,47.591,47.5486755371094,0,0,0,0,2/8/2015 6:21:03 AM,
69,0,463,4547.69230769231,4123.58974358974,4006.66666666667,4450.76923076923,4545.64102564103,4458.46153846154,4311.28205128205,4432.30769230769,4670.25641025641,4147.69230769231,4261.53846153846,4218.97435897436,4010.25641025641,4172.30769230769,1664,1692,47.599,47.5799522399902,0,0,0,0,2/8/2015 6:21:03 AM,
70,0,480,4523.07692307692,4108.71794871795,4005.64102564103,4442.5641025641,4516.92307692308,4441.53846153846,4307.69230769231,4427.69230769231,4664.61538461539,4139.48717948718,4234.8717948718,4218.97435897436,3986.66666666667,4188.71794871795,1664,1691,47.607,47.5799522399902,0,0,0,0,2/8/2015 6:21:03 AM,
71,0,0,4523.58974358974,4103.58974358974,3996.41025641026,4442.5641025641,4529.74358974359,4442.05128205128,4306.66666666667,4427.69230769231,4666.15384615385,4139.48717948718,4230.76923076923,4208.71794871795,3967.69230769231,4186.66666666667,1663,1689,47.614,47.5799522399902,0,0,0,0,2/8/2015 6:21:03 AM,
72,0,410,4532.30769230769,4109.23076923077,3989.23076923077,4445.64102564103,4541.53846153846,4438.97435897436,4307.69230769231,4426.66666666667,4668.20512820513,4153.84615384615,4250.25641025641,4196.41025641026,3983.07692307692,4176.92307692308,1663,1688,47.622,47.5799522399902,0,0,0,0,2/8/2015 6:21:03 AM,
73,0,427,4529.74358974359,4110.76923076923,3994.35897435898,4444.10256410256,4535.38461538462,4431.28205128205,4308.20512820513,4413.84615384615,4657.94871794872,4158.97435897436,4253.84615384615,4203.58974358974,3995.38461538462,4177.4358974359,1664,1691,47.63,47.5799522399902,0,0,0,0,2/8/2015 6:21:03 AM,
74,0,429,4533.84615384615,4104.61538461538,4005.64102564103,4444.10256410256,4553.33333333333,4440.51282051282,4308.20512820513,4412.30769230769,4649.23076923077,4154.35897435897,4247.17948717949,4207.17948717949,3982.5641025641,4187.17948717949,1663,1691,47.638,47.5799522399902,0,0,0,0,2/8/2015 6:21:03 AM,
75,0,456,4546.66666666667,4107.17948717949,4010.76923076923,4450.25641025641,4582.5641025641,4455.38461538462,4308.20512820513,4429.23076923077,4654.35897435897,4156.92307692308,4245.64102564103,4200.51282051282,3977.94871794872,4204.10256410256,1663,1692,47.646,47.5799522399902,0,0,0,0,2/8/2015 6:21:03 AM,
76,0,408,4553.33333333333,4127.17948717949,4018.97435897436,4466.66666666667,4586.66666666667,4463.07692307692,4308.20512820513,4439.48717948718,4667.69230769231,4156.92307692308,4252.30769230769,4211.79487179487,3993.33333333333,4223.58974358974,1663,1691,47.654,47.5799522399902,0,0,0,0,2/8/2015 6:21:03 AM,
77,0,437,4557.94871794872,4143.58974358974,4023.07692307692,4483.58974358974,4582.5641025641,4472.30769230769,4308.71794871795,4441.53846153846,4678.46153846154,4151.28205128205,4267.17948717949,4218.46153846154,4006.66666666667,4233.33333333333,1663,1692,47.661,47.5799522399902,0,0,0,0,2/8/2015 6:21:03 AM,
78,0,429,4555.89743589744,4140.51282051282,4015.38461538462,4478.46153846154,4586.15384615385,4476.92307692308,4308.20512820513,4441.53846153846,4676.41025641026,4152.82051282051,4268.71794871795,4204.10256410256,4010.25641025641,4210.25641025641,1663,1691,47.669,47.5799522399902,0,0,0,0,2/8/2015 6:21:03 AM,
79,0,456,4547.17948717949,4122.5641025641,4011.28205128205,4452.30769230769,4573.84615384615,4468.20512820513,4304.10256410256,4438.46153846154,4667.69230769231,4156.92307692308,4245.12820512821,4206.66666666667,3991.28205128205,4158.46153846154,1663,1691,47.677,47.5799522399902,0,0,0,0,2/8/2015 6:21:03 AM,
80,0,408,4538.46153846154,4106.15384615385,4016.92307692308,4445.64102564103,4561.53846153846,4449.23076923077,4301.53846153846,4432.82051282051,4662.05128205128,4161.02564102564,4235.38461538462,4217.4358974359,3963.07692307692,4149.74358974359,1664,1690,47.685,47.5799522399902,0,0,0,0,2/8/2015 6:21:03 AM,
81,0,437,4525.12820512821,4109.23076923077,4008.20512820513,4462.05128205128,4581.02564102564,4438.97435897436,4304.10256410256,4423.58974358974,4662.05128205128,4164.61538461538,4257.94871794872,4204.61538461538,3975.38461538462,4217.4358974359,1662,1691,47.693,47.6737823486328,0,0,0,0,2/8/2015 6:21:03 AM,
82,0,429,4516.92307692308,4122.5641025641,3988.71794871795,4462.05128205128,4596.92307692308,4447.69230769231,4304.61538461538,4428.20512820513,4665.12820512821,4161.53846153846,4269.23076923077,4192.82051282051,4002.05128205128,4244.61538461538,1664,1690,47.7,47.6737823486328,0,0,0,0,2/8/2015 6:21:03 AM,
83,0,456,4531.79487179487,4120.51282051282,3996.41025641026,4455.89743589744,4574.8717948718,4463.07692307692,4303.07692307692,4443.58974358974,4664.10256410256,4149.74358974359,4251.79487179487,4200.51282051282,3996.92307692308,4203.58974358974,1664,1692,47.708,47.6737823486328,0,0,0,0,2/8/2015 6:21:03 AM,
84,0,408,4544.61538461538,4110.76923076923,4015.38461538462,4455.89743589744,4545.12820512821,4461.53846153846,4303.07692307692,4442.5641025641,4663.58974358974,4138.46153846154,4237.94871794872,4206.66666666667,3990.76923076923,4187.69230769231,1664,1692,47.716,47.6737823486328,0,0,0,0,2/8/2015 6:21:03 AM,
85,0,437,4524.61538461538,4114.35897435897,4012.30769230769,4447.69230769231,4545.64102564103,4446.15384615385,4303.58974358974,4431.79487179487,4664.10256410256,4140.51282051282,4245.12820512821,4216.41025641026,4004.61538461539,4175.38461538462,1664,1692,47.724,47.6737823486328,0,0,0,0,2/8/2015 6:21:03 AM,
86,0,429,4517.94871794872,4120.51282051282,4003.58974358974,4447.17948717949,4571.28205128205,4446.15384615385,4303.07692307692,4431.28205128205,4658.97435897436,4148.20512820513,4260,4219.48717948718,4020,4170.25641025641,1665,1692,47.732,47.6737823486328,0,0,0,0,2/8/2015 6:21:03 AM,
87,0,456,4542.05128205128,4120,4004.10256410256,4460,4590.25641025641,4459.48717948718,4303.07692307692,4432.82051282051,4654.8717948718,4147.69230769231,4262.05128205128,4201.02564102564,4033.84615384615,4218.97435897436,1665,1692,47.74,47.6737823486328,0,0,0,0,2/8/2015 6:21:03 AM,
88,0,408,4551.28205128205,4120,4002.05128205128,4460.51282051282,4588.71794871795,4462.5641025641,4303.07692307692,4432.82051282051,4660.51282051282,4138.46153846154,4251.28205128205,4196.41025641026,4032.82051282051,4237.4358974359,1665,1692,47.747,47.6737823486328,0,0,0,0,2/8/2015 6:21:03 AM,
89,0,437,4546.15384615385,4124.61538461538,4009.23076923077,4462.5641025641,4582.5641025641,4463.07692307692,4303.07692307692,4439.48717948718,4671.28205128205,4133.84615384615,4252.30769230769,4214.8717948718,4018.97435897436,4188.20512820513,1665,1692,47.755,47.6737823486328,0,0,0,0,2/8/2015 6:21:03 AM,
90,0,429,4548.20512820513,4133.33333333333,4029.74358974359,4477.94871794872,4572.30769230769,4473.84615384615,4303.07692307692,4446.15384615385,4673.84615384615,4142.5641025641,4266.15384615385,4224.10256410256,4025.64102564103,4169.23076923077,1665,1691,47.763,47.6737823486328,0,0,0,0,2/8/2015 6:21:03 AM,
91,0,456,4551.28205128205,4136.41025641026,4031.79487179487,4478.46153846154,4558.46153846154,4474.35897435897,4303.07692307692,4447.17948717949,4672.82051282051,4152.30769230769,4262.05128205128,4218.46153846154,4034.8717948718,4188.20512820513,1664,1689,47.771,47.6737823486328,0,0,0,0,2/8/2015 6:21:03 AM,
92,0,408,4564.10256410256,4139.48717948718,4019.48717948718,4471.79487179487,4562.5641025641,4464.10256410256,4303.07692307692,4444.10256410256,4672.30769230769,4147.17948717949,4262.5641025641,4217.4358974359,4035.89743589744,4203.07692307692,1664,1690,47.779,47.6737823486328,0,0,0,0,2/8/2015 6:21:03 AM,
93,0,437,4575.89743589744,4143.58974358974,4020,4475.89743589744,4578.97435897436,4460,4303.07692307692,4431.28205128205,4661.02564102564,4133.33333333333,4277.4358974359,4217.4358974359,4046.15384615385,4217.4358974359,1665,1689,47.787,47.6737823486328,0,0,0,0,2/8/2015 6:21:04 AM,
94,0,429,4559.48717948718,4132.30769230769,4020,4471.28205128205,4571.28205128205,4451.79487179487,4303.07692307692,4413.33333333333,4645.12820512821,4134.35897435897,4259.48717948718,4216.92307692308,4030.76923076923,4217.4358974359,1663,1690,47.795,47.6737823486328,0,0,0,0,2/8/2015 6:21:04 AM,
95,0,456,4544.61538461538,4114.35897435897,4010.25641025641,4455.89743589744,4553.84615384615,4439.48717948718,4303.07692307692,4405.64102564103,4644.61538461538,4142.5641025641,4237.94871794872,4219.48717948718,4001.53846153846,4216.92307692308,1664,1691,47.803,47.6737823486328,0,0,0,0,2/8/2015 6:21:04 AM,
96,0,408,4552.30769230769,4116.92307692308,4002.5641025641,4449.74358974359,4558.97435897436,4432.82051282051,4303.07692307692,4405.64102564103,4652.30769230769,4136.41025641026,4259.48717948718,4210.76923076923,4016.41025641026,4226.15384615385,1664,1691,47.811,47.6737823486328,0,0,0,0,2/8/2015 6:21:04 AM,
97,0,437,4552.30769230769,4124.61538461538,3999.48717948718,4446.15384615385,4554.35897435897,4426.15384615385,4303.07692307692,4403.07692307692,4649.74358974359,4128.20512820513,4273.84615384615,4198.97435897436,4038.97435897436,4194.8717948718,1664,1693,47.818,47.7988891601563,0,0,0,0,2/8/2015 6:21:04 AM,
98,0,429,4545.12820512821,4111.79487179487,3996.41025641026,4441.02564102564,4529.74358974359,4422.05128205128,4303.07692307692,4400.51282051282,4646.15384615385,4133.84615384615,4253.33333333333,4200,4022.05128205128,4156.92307692308,1664,1691,47.827,47.7988891601563,0,0,0,0,2/8/2015 6:21:04 AM,
99,0,456,4555.38461538462,4101.53846153846,3996.92307692308,4452.30769230769,4543.07692307692,4425.12820512821,4303.07692307692,4400.51282051282,4649.23076923077,4140,4245.12820512821,4204.10256410256,4009.23076923077,4192.30769230769,1663,1693,47.834,47.7988891601563,0,0,0,0,2/8/2015 6:21:04 AM,
100,0,408,4556.41025641026,4107.17948717949,4001.02564102564,4462.5641025641,4569.23076923077,4428.20512820513,4303.07692307692,4398.97435897436,4648.20512820513,4132.82051282051,4251.28205128205,4200.51282051282,4010.25641025641,4236.41025641026,1664,1692,47.841,47.7988891601563,0,0,0,0,2/8/2015 6:21:04 AM,
101,0,437,4531.79487179487,4110.25641025641,4004.61538461539,4452.30769230769,4548.71794871795,4426.15384615385,4303.07692307692,4396.92307692308,4648.20512820513,4130.76923076923,4251.28205128205,4199.48717948718,4006.66666666667,4223.58974358974,1663,1692,47.849,47.7988891601563,0,0,0,0,2/8/2015 6:21:04 AM,
102,0,429,4534.35897435897,4107.17948717949,4006.66666666667,4452.30769230769,4537.94871794872,4424.10256410256,4303.07692307692,4400.51282051282,4646.15384615385,4138.97435897436,4248.20512820513,4204.10256410256,4008.71794871795,4203.58974358974,1664,1692,47.858,47.7988891601563,0,0,0,0,2/8/2015 6:21:04 AM,
103,0,456,4558.97435897436,4104.61538461538,4003.58974358974,4465.12820512821,4574.35897435897,4432.30769230769,4303.07692307692,4405.64102564103,4637.94871794872,4133.33333333333,4244.61538461538,4202.5641025641,4005.12820512821,4200,1664,1692,47.865,47.7988891601563,0,0,0,0,2/8/2015 6:21:04 AM,
104,0,408,4557.4358974359,4109.74358974359,4002.5641025641,4463.07692307692,4595.89743589744,4446.66666666667,4303.07692307692,4407.17948717949,4640,4117.4358974359,4253.33333333333,4198.97435897436,4005.64102564103,4218.97435897436,1664,1692,47.872,47.7988891601563,0,0,0,0,2/8/2015 6:21:04 AM,
105,0,437,4549.23076923077,4122.05128205128,4012.82051282051,4455.89743589744,4587.69230769231,4444.10256410256,4303.07692307692,4402.5641025641,4647.69230769231,4121.53846153846,4269.74358974359,4201.53846153846,4021.53846153846,4227.17948717949,1664,1692,47.88,47.7988891601563,0,0,0,0,2/8/2015 6:21:04 AM,
106,0,429,4541.53846153846,4124.61538461538,4013.84615384615,4460.51282051282,4566.15384615385,4428.20512820513,4303.07692307692,4399.48717948718,4644.10256410256,4137.4358974359,4260,4204.10256410256,4016.92307692308,4181.02564102564,1665,1692,47.888,47.7988891601563,0,0,0,0,2/8/2015 6:21:04 AM,
107,0,456,4512.82051282051,4112.30769230769,4003.58974358974,4463.07692307692,4545.12820512821,4427.69230769231,4303.07692307692,4403.07692307692,4641.53846153846,4140,4237.4358974359,4200.51282051282,3996.92307692308,4170.76923076923,1665,1691,47.896,47.7988891601563,0,0,0,0,2/8/2015 6:21:04 AM,
108,0,408,4505.12820512821,4107.17948717949,4004.10256410256,4458.46153846154,4559.48717948718,4434.35897435897,4303.07692307692,4405.12820512821,4647.17948717949,4134.35897435897,4247.69230769231,4197.94871794872,4005.12820512821,4219.48717948718,1665,1692,47.904,47.7988891601563,0,0,0,0,2/8/2015 6:21:04 AM,
109,0,437,4531.79487179487,4112.30769230769,4012.82051282051,4460,4583.07692307692,4429.74358974359,4303.07692307692,4398.97435897436,4646.15384615385,4138.46153846154,4267.69230769231,4202.5641025641,4017.94871794872,4212.82051282051,1666,1690,47.912,47.7988891601563,0,0,0,0,2/8/2015 6:21:04 AM,
110,0,429,4542.5641025641,4108.71794871795,4007.17948717949,4463.07692307692,4565.12820512821,4425.64102564103,4303.58974358974,4393.33333333333,4640,4138.46153846154,4257.94871794872,4208.71794871795,4002.05128205128,4177.4358974359,1665,1690,47.919,47.7988891601563,0,0,0,0,2/8/2015 6:21:04 AM,
111,0,456,4529.23076923077,4104.10256410256,3991.79487179487,4457.94871794872,4539.48717948718,4421.53846153846,4303.07692307692,4396.92307692308,4635.89743589744,4123.58974358974,4240,4211.28205128205,3992.82051282051,4181.02564102564,1667,1689,47.927,47.7988891601563,0,0,0,0,2/8/2015 6:21:04 AM,
112,0,408,4515.89743589744,4107.69230769231,3997.4358974359,4450.25641025641,4543.58974358974,4418.97435897436,4303.07692307692,4400.51282051282,4628.71794871795,4112.30769230769,4245.12820512821,4213.33333333333,4004.10256410256,4184.61538461538,1666,1690,47.936,47.7988891601563,0,0,0,0,2/8/2015 6:21:04 AM,
113,0,437,4522.5641025641,4110.76923076923,4017.94871794872,4453.33333333333,4558.46153846154,4424.10256410256,4304.10256410256,4398.46153846154,4630.76923076923,4116.92307692308,4260,4215.89743589744,4006.66666666667,4189.74358974359,1666,1691,47.944,47.9239959716797,0,0,0,0,2/8/2015 6:21:04 AM,
114,0,429,4537.94871794872,4114.35897435897,4019.48717948718,4466.15384615385,4571.28205128205,4428.71794871795,4302.5641025641,4399.48717948718,4643.58974358974,4129.74358974359,4255.89743589744,4217.4358974359,3996.92307692308,4210.25641025641,1666,1692,47.952,47.9239959716797,0,0,0,0,2/8/2015 6:21:04 AM,
115,0,456,4532.82051282051,4118.46153846154,4004.61538461539,4473.33333333333,4581.53846153846,4427.17948717949,4301.53846153846,4406.66666666667,4647.69230769231,4137.4358974359,4251.79487179487,4214.35897435897,4001.53846153846,4200,1665,1692,47.96,47.9239959716797,0,0,0,0,2/8/2015 6:21:04 AM,
116,0,408,4518.97435897436,4121.02564102564,4004.10256410256,4473.33333333333,4574.35897435897,4428.71794871795,4302.5641025641,4412.30769230769,4647.17948717949,4137.4358974359,4261.53846153846,4213.33333333333,4021.53846153846,4195.38461538462,1664,1693,47.966,47.9239959716797,0,0,0,0,2/8/2015 6:21:04 AM,
117,0,437,4525.12820512821,4123.58974358974,4017.94871794872,4468.71794871795,4554.8717948718,4433.84615384615,4301.53846153846,4414.35897435897,4649.23076923077,4132.30769230769,4264.10256410256,4216.92307692308,4027.17948717949,4225.64102564103,1664,1693,47.974,47.9239959716797,0,0,0,0,2/8/2015 6:21:04 AM,
118,0,429,4523.58974358974,4116.92307692308,4025.64102564103,4455.38461538462,4548.71794871795,4425.64102564103,4296.41025641026,4413.84615384615,4644.10256410256,4125.64102564103,4255.89743589744,4215.38461538462,4009.23076923077,4212.30769230769,1664,1692,47.982,47.9239959716797,0,0,0,0,2/8/2015 6:21:04 AM,
119,0,456,4512.82051282051,4106.66666666667,4018.46153846154,4457.94871794872,4572.30769230769,4413.33333333333,4295.38461538462,4411.79487179487,4643.07692307692,4123.07692307692,4260,4210.76923076923,3996.92307692308,4165.12820512821,1663,1694,47.99,47.9239959716797,0,0,0,0,2/8/2015 6:21:04 AM,
120,0,408,4517.94871794872,4110.25641025641,4012.82051282051,4473.84615384615,4587.69230769231,4415.89743589744,4301.53846153846,4413.33333333333,4648.20512820513,4124.10256410256,4263.07692307692,4214.35897435897,3998.46153846154,4156.92307692308,1664,1692,47.998,47.9239959716797,0,0,0,0,2/8/2015 6:21:04 AM,
121,0,437,4524.61538461538,4118.97435897436,4016.41025641026,4464.61538461538,4570.25641025641,4423.58974358974,4305.12820512821,4413.84615384615,4643.07692307692,4127.69230769231,4245.64102564103,4224.61538461538,3996.41025641026,4177.94871794872,1663,1692,48.005,47.9239959716797,0,0,0,0,2/8/2015 6:21:04 AM,
122,0,429,4530.76923076923,4121.02564102564,4018.97435897436,4443.07692307692,4554.8717948718,4417.4358974359,4302.05128205128,4406.15384615385,4637.4358974359,4128.71794871795,4249.23076923077,4219.48717948718,3998.97435897436,4213.33333333333,1664,1691,48.013,47.9239959716797,0,0,0,0,2/8/2015 6:21:04 AM,
123,0,456,4540.51282051282,4121.53846153846,4017.4358974359,4457.94871794872,4562.05128205128,4404.61538461538,4303.07692307692,4401.02564102564,4646.66666666667,4129.74358974359,4274.35897435897,4202.5641025641,4018.97435897436,4251.28205128205,1663,1691,48.021,47.9239959716797,0,0,0,0,2/8/2015 6:21:04 AM,
124,0,408,4528.71794871795,4115.38461538462,4012.30769230769,4476.41025641026,4572.82051282051,4405.12820512821,4312.30769230769,4407.17948717949,4652.30769230769,4123.58974358974,4274.8717948718,4203.07692307692,4021.02564102564,4224.10256410256,1664,1691,48.029,47.9239959716797,0,0,0,0,2/8/2015 6:21:04 AM,
125,0,437,4509.74358974359,4109.23076923077,4007.69230769231,4461.53846153846,4574.8717948718,4420.51282051282,4316.92307692308,4412.82051282051,4648.20512820513,4112.82051282051,4261.02564102564,4215.89743589744,3997.94871794872,4158.97435897436,1664,1690,48.037,47.9239959716797,0,0,0,0,2/8/2015 6:21:04 AM,
126,0,429,4514.8717948718,4120.51282051282,4010.25641025641,4456.92307692308,4574.35897435897,4435.89743589744,4313.84615384615,4418.46153846154,4649.23076923077,4114.35897435897,4265.64102564103,4218.97435897436,3997.4358974359,4169.23076923077,1665,1691,48.045,47.9239959716797,0,0,0,0,2/8/2015 6:21:04 AM,
127,0,456,4527.17948717949,4130.25641025641,4010.76923076923,4474.8717948718,4566.15384615385,4433.33333333333,4311.28205128205,4425.64102564103,4651.28205128205,4118.46153846154,4268.20512820513,4215.38461538462,4017.94871794872,4211.79487179487,1665,1692,48.052,47.9239959716797,0,0,0,0,2/8/2015 6:21:04 AM,
128,0,408,4521.53846153846,4115.89743589744,4005.12820512821,4474.35897435897,4553.33333333333,4416.41025641026,4309.74358974359,4423.07692307692,4647.69230769231,4112.82051282051,4260,4213.84615384615,4020.51282051282,4196.92307692308,1664,1692,48.06,47.9239959716797,0,0,0,0,2/8/2015 6:21:04 AM,
0,0,449,4519.48717948718,4105.64102564103,4005.64102564103,4457.4358974359,4558.97435897436,4414.35897435897,4307.69230769231,4415.89743589744,4647.69230769231,4119.48717948718,4266.15384615385,4212.82051282051,4008.71794871795,4177.4358974359,1665,1691,48.068,48.0491065979004,0,0,0,0,2/8/2015 6:21:04 AM,
1,0,445,4526.66666666667,4115.89743589744,4007.69230769231,4453.84615384615,4573.33333333333,4422.05128205128,4306.66666666667,4417.4358974359,4649.74358974359,4140.51282051282,4266.66666666667,4216.41025641026,4004.10256410256,4184.10256410256,1665,1692,48.076,48.0491065979004,0,0,0,0,2/8/2015 6:21:04 AM,
2,0,466,4515.89743589744,4126.15384615385,3999.48717948718,4462.5641025641,4575.38461538462,4419.48717948718,4309.74358974359,4415.89743589744,4645.12820512821,4139.48717948718,4255.89743589744,4213.84615384615,4007.69230769231,4188.20512820513,1664,1693,48.084,48.0491065979004,0,0,0,0,2/8/2015 6:21:04 AM,
3,0,493,4492.30769230769,4122.05128205128,3996.92307692308,4461.53846153846,4562.5641025641,4407.69230769231,4311.28205128205,4404.10256410256,4639.48717948718,4121.53846153846,4258.97435897436,4206.15384615385,4004.61538461539,4182.5641025641,1664,1692,48.092,48.0491065979004,0,0,0,0,2/8/2015 6:21:04 AM,
4,0,475,4480.51282051282,4108.71794871795,4003.58974358974,4456.41025641026,4551.28205128205,4403.07692307692,4307.69230769231,4396.41025641026,4641.02564102564,4119.48717948718,4268.71794871795,4211.79487179487,4005.12820512821,4176.41025641026,1664,1692,48.1,48.0803833007813,0,0,0,0,2/8/2015 6:21:04 AM,
5,0,463,4494.35897435897,4104.61538461538,4009.23076923077,4459.48717948718,4553.33333333333,4411.79487179487,4305.12820512821,4397.4358974359,4644.61538461538,4122.05128205128,4265.64102564103,4213.33333333333,4015.89743589744,4191.28205128205,1664,1692,48.108,48.0803833007813,0,0,0,0,2/8/2015 6:21:04 AM,
6,0,480,4521.02564102564,4114.8717948718,4004.61538461539,4463.07692307692,4553.33333333333,4413.84615384615,4309.23076923077,4399.48717948718,4646.15384615385,4117.94871794872,4265.64102564103,4206.66666666667,4017.4358974359,4205.12820512821,1663,1692,48.116,48.0803833007813,0,0,0,0,2/8/2015 6:21:04 AM,
