COUNTER,INTERPOLATED,RAW_CQ,AF3,F7,F3, FC5, T7, P7, O1, O2,P8, T8, FC6, F4,F8, AF4,GYROX, GYROY, TIMESTAMP, ES_TIMESTAMPFUNC_ID, FUNC_VALUE, MARKER, SYNC_SIGNAL,DateTime
77,0,437,4395.89743589744,4078.97435897436,3968.20512820513,4307.17948717949,4519.48717948718,4412.82051282051,4313.84615384615,4422.5641025641,4627.69230769231,4114.8717948718,4257.4358974359,4203.07692307692,4021.53846153846,4132.82051282051,1665,1691,19.419,19.3994846343994,0,0,0,0,2/8/2015 6:20:35 AM,
78,0,423,4420.51282051282,4091.79487179487,3969.23076923077,4314.8717948718,4520,4415.89743589744,4313.84615384615,4433.84615384615,4650.76923076923,4121.02564102564,4263.58974358974,4216.92307692308,4016.92307692308,4105.12820512821,1664,1690,19.427,19.3994846343994,0,0,0,0,2/8/2015 6:20:35 AM,
79,0,453,4431.28205128205,4093.84615384615,3984.10256410256,4321.53846153846,4523.58974358974,4425.12820512821,4313.84615384615,4441.02564102564,4663.58974358974,4128.20512820513,4270.76923076923,4224.61538461538,4026.15384615385,4129.23076923077,1665,1691,19.434,19.3994846343994,0,0,0,0,2/8/2015 6:20:35 AM,
80,0,410,4431.28205128205,4087.69230769231,3992.82051282051,4317.94871794872,4544.61538461538,4433.33333333333,4313.84615384615,4444.10256410256,4657.4358974359,4118.97435897436,4278.46153846154,4230.76923076923,4042.05128205128,4165.64102564103,1664,1690,19.442,19.3994846343994,0,0,0,0,2/8/2015 6:20:35 AM,
81,0,437,4432.82051282051,4101.53846153846,3983.07692307692,4329.74358974359,4545.64102564103,4425.64102564103,4313.84615384615,4446.66666666667,4650.25641025641,4103.07692307692,4274.8717948718,4228.20512820513,4040.51282051282,4176.92307692308,1664,1690,19.449,19.3994846343994,0,0,0,0,2/8/2015 6:20:35 AM,
82,0,423,4433.84615384615,4109.74358974359,3975.38461538462,4339.48717948718,4526.66666666667,4416.41025641026,4313.84615384615,4447.17948717949,4646.66666666667,4110.25641025641,4270.25641025641,4221.53846153846,4027.69230769231,4172.82051282051,1664,1689,19.457,19.3994846343994,0,0,0,0,2/8/2015 6:20:35 AM,
83,0,453,4434.35897435897,4101.02564102564,3974.8717948718,4326.15384615385,4532.30769230769,4425.12820512821,4313.84615384615,4443.07692307692,4646.66666666667,4124.10256410256,4283.58974358974,4216.92307692308,4034.35897435898,4169.74358974359,1663,1692,19.465,19.3994846343994,0,0,0,0,2/8/2015 6:20:35 AM,
84,0,410,4424.61538461538,4097.94871794872,3974.8717948718,4312.82051282051,4545.12820512821,4428.20512820513,4313.84615384615,4436.41025641026,4647.17948717949,4116.92307692308,4276.41025641026,4215.89743589744,4036.41025641026,4146.15384615385,1665,1692,19.473,19.3994846343994,0,0,0,0,2/8/2015 6:20:35 AM,
85,0,437,4417.4358974359,4097.94871794872,3984.10256410256,4316.41025641026,4523.58974358974,4414.8717948718,4313.84615384615,4431.79487179487,4646.66666666667,4105.12820512821,4247.69230769231,4221.02564102564,4015.89743589744,4129.74358974359,1663,1693,19.481,19.3994846343994,0,0,0,0,2/8/2015 6:20:35 AM,
86,0,423,4441.02564102564,4094.35897435898,3989.74358974359,4325.64102564103,4511.28205128205,4418.97435897436,4313.84615384615,4432.30769230769,4645.12820512821,4105.12820512821,4259.48717948718,4231.79487179487,4017.94871794872,4150.76923076923,1665,1694,19.488,19.3994846343994,0,0,0,0,2/8/2015 6:20:35 AM,
87,0,453,4457.4358974359,4094.35897435898,3978.97435897436,4327.17948717949,4539.48717948718,4435.38461538462,4313.84615384615,4433.33333333333,4644.61538461538,4103.58974358974,4294.35897435897,4232.30769230769,4034.8717948718,4171.79487179487,1664,1693,19.496,19.3994846343994,0,0,0,0,2/8/2015 6:20:35 AM,
88,0,410,4427.17948717949,4094.35897435898,3970.25641025641,4324.61538461538,4534.35897435897,4423.58974358974,4313.84615384615,4428.20512820513,4643.58974358974,4102.05128205128,4280.51282051282,4220,4018.97435897436,4168.71794871795,1664,1693,19.504,19.3994846343994,0,0,0,0,2/8/2015 6:20:35 AM,
89,0,437,4400.51282051282,4088.71794871795,3973.84615384615,4325.64102564103,4507.69230769231,4406.66666666667,4313.84615384615,4427.69230769231,4639.48717948718,4107.17948717949,4244.10256410256,4211.79487179487,4003.07692307692,4161.02564102564,1663,1692,19.512,19.3994846343994,0,0,0,0,2/8/2015 6:20:35 AM,
90,0,423,4410.25641025641,4086.15384615385,3980.51282051282,4326.15384615385,4535.38461538462,4417.94871794872,4313.84615384615,4430.76923076923,4635.89743589744,4108.20512820513,4252.82051282051,4212.82051282051,4021.53846153846,4173.84615384615,1664,1691,19.52,19.3994846343994,0,0,0,0,2/8/2015 6:20:35 AM,
91,0,453,4432.30769230769,4082.5641025641,3986.15384615385,4324.61538461538,4561.02564102564,4429.23076923077,4313.84615384615,4426.66666666667,4638.46153846154,4110.76923076923,4282.05128205128,4216.92307692308,4036.92307692308,4187.69230769231,1664,1690,19.528,19.3994846343994,0,0,0,0,2/8/2015 6:20:35 AM,
92,0,410,4446.66666666667,4078.97435897436,3984.10256410256,4326.15384615385,4540.51282051282,4429.74358974359,4313.84615384615,4432.30769230769,4642.05128205128,4110.25641025641,4283.58974358974,4220,4026.15384615385,4166.66666666667,1663,1689,19.535,19.3994846343994,0,0,0,0,2/8/2015 6:20:35 AM,
93,0,437,4443.58974358974,4076.92307692308,3973.33333333333,4322.5641025641,4537.94871794872,4432.30769230769,4313.84615384615,4440.51282051282,4642.5641025641,4098.97435897436,4267.69230769231,4215.38461538462,4010.25641025641,4133.33333333333,1664,1690,19.543,19.5245914459229,0,0,0,0,2/8/2015 6:20:35 AM,
94,0,423,4420,4075.38461538462,3967.17948717949,4313.84615384615,4538.46153846154,4429.74358974359,4313.84615384615,4432.30769230769,4644.10256410256,4092.30769230769,4262.05128205128,4212.30769230769,4008.20512820513,4149.74358974359,1665,1691,19.551,19.5245914459229,0,0,0,0,2/8/2015 6:20:35 AM,
95,0,453,4414.8717948718,4080.51282051282,3977.4358974359,4326.15384615385,4511.28205128205,4425.64102564103,4313.84615384615,4426.15384615385,4647.69230769231,4094.8717948718,4267.17948717949,4220.51282051282,4021.53846153846,4188.20512820513,1664,1691,19.559,19.5245914459229,0,0,0,0,2/8/2015 6:20:35 AM,
96,0,410,4426.66666666667,4074.8717948718,3989.74358974359,4337.4358974359,4515.38461538462,4428.20512820513,4313.84615384615,4434.35897435897,4649.74358974359,4098.97435897436,4265.12820512821,4223.58974358974,4024.61538461539,4177.94871794872,1665,1692,19.567,19.5245914459229,0,0,0,0,2/8/2015 6:20:35 AM,
97,0,437,4415.89743589744,4057.94871794872,3984.61538461539,4320.51282051282,4536.41025641026,4429.74358974359,4313.84615384615,4434.8717948718,4647.69230769231,4101.53846153846,4261.02564102564,4215.89743589744,4012.82051282051,4148.71794871795,1664,1694,19.575,19.5558681488037,0,0,0,0,2/8/2015 6:20:35 AM,
98,0,423,4411.79487179487,4060.51282051282,3973.84615384615,4312.82051282051,4536.92307692308,4428.20512820513,4313.84615384615,4429.23076923077,4649.23076923077,4105.12820512821,4265.64102564103,4216.92307692308,4009.23076923077,4149.23076923077,1664,1694,19.582,19.5558681488037,0,0,0,0,2/8/2015 6:20:35 AM,
99,0,453,4426.15384615385,4070.76923076923,3974.35897435898,4326.15384615385,4539.48717948718,4426.66666666667,4313.84615384615,4430.25641025641,4653.33333333333,4107.69230769231,4264.10256410256,4222.05128205128,4013.33333333333,4164.10256410256,1664,1694,19.591,19.5558681488037,0,0,0,0,2/8/2015 6:20:35 AM,
100,0,410,4428.71794871795,4055.89743589744,3974.35897435898,4324.10256410256,4536.41025641026,4420,4313.84615384615,4428.20512820513,4639.48717948718,4100,4260,4215.89743589744,4012.30769230769,4175.89743589744,1664,1695,19.599,19.5558681488037,0,0,0,0,2/8/2015 6:20:35 AM,
101,0,437,4425.64102564103,4044.61538461539,3970.76923076923,4320,4529.23076923077,4418.97435897436,4313.84615384615,4423.58974358974,4625.64102564103,4093.33333333333,4266.15384615385,4209.74358974359,4013.33333333333,4176.92307692308,1664,1694,19.607,19.5558681488037,0,0,0,0,2/8/2015 6:20:35 AM,
102,0,423,4432.82051282051,4052.82051282051,3976.92307692308,4327.69230769231,4534.35897435897,4423.07692307692,4313.84615384615,4430.25641025641,4638.97435897436,4103.58974358974,4267.69230769231,4218.46153846154,4010.25641025641,4157.4358974359,1663,1695,19.615,19.5558681488037,0,0,0,0,2/8/2015 6:20:35 AM,
103,0,453,4443.07692307692,4053.33333333333,3973.84615384615,4317.94871794872,4542.05128205128,4427.17948717949,4313.84615384615,4440.51282051282,4651.79487179487,4108.71794871795,4266.66666666667,4223.07692307692,4007.17948717949,4156.41025641026,1665,1694,19.621,19.5558681488037,0,0,0,0,2/8/2015 6:20:35 AM,
104,0,410,4444.10256410256,4054.35897435898,3958.46153846154,4311.28205128205,4555.38461538462,4438.97435897436,4313.84615384615,4440.51282051282,4645.64102564103,4090.25641025641,4273.33333333333,4208.20512820513,4013.33333333333,4173.84615384615,1664,1694,19.629,19.5558681488037,0,0,0,0,2/8/2015 6:20:35 AM,
105,0,437,4441.02564102564,4061.02564102564,3959.48717948718,4329.74358974359,4558.97435897436,4449.23076923077,4313.84615384615,4444.10256410256,4644.10256410256,4087.69230769231,4273.33333333333,4200.51282051282,4016.41025641026,4158.97435897436,1664,1694,19.637,19.5558681488037,0,0,0,0,2/8/2015 6:20:35 AM,
106,0,423,4445.64102564103,4057.4358974359,3981.02564102564,4326.15384615385,4525.64102564103,4442.5641025641,4313.84615384615,4458.46153846154,4653.84615384615,4104.61538461538,4265.12820512821,4220.51282051282,4005.64102564103,4146.66666666667,1664,1693,19.645,19.5558681488037,0,0,0,0,2/8/2015 6:20:35 AM,
107,0,453,4445.12820512821,4050.25641025641,3993.33333333333,4306.15384615385,4506.15384615385,4425.12820512821,4313.84615384615,4462.5641025641,4655.38461538462,4098.97435897436,4261.02564102564,4239.48717948718,3995.89743589744,4150.76923076923,1664,1694,19.654,19.5558681488037,0,0,0,0,2/8/2015 6:20:35 AM,
108,0,410,4426.66666666667,4044.10256410256,3985.12820512821,4314.35897435897,4533.84615384615,4420.51282051282,4313.84615384615,4458.46153846154,4655.38461538462,4090.25641025641,4262.05128205128,4236.92307692308,4004.10256410256,4134.35897435897,1665,1693,19.662,19.5558681488037,0,0,0,0,2/8/2015 6:20:35 AM,
109,0,437,4439.48717948718,4046.15384615385,3969.74358974359,4333.33333333333,4546.15384615385,4427.17948717949,4313.84615384615,4461.02564102564,4661.53846153846,4101.02564102564,4273.33333333333,4226.15384615385,4024.61538461539,4151.79487179487,1665,1693,19.669,19.6496982574463,0,0,0,0,2/8/2015 6:20:35 AM,
110,0,423,4474.35897435897,4057.94871794872,3968.71794871795,4329.74358974359,4535.89743589744,4430.25641025641,4313.84615384615,4456.92307692308,4657.94871794872,4103.58974358974,4287.17948717949,4235.38461538462,4020.51282051282,4175.89743589744,1665,1692,19.677,19.6496982574463,0,0,0,0,2/8/2015 6:20:35 AM,
111,0,453,4464.61538461538,4056.41025641026,3980.51282051282,4312.30769230769,4537.4358974359,4428.20512820513,4313.84615384615,4444.10256410256,4642.05128205128,4092.82051282051,4275.89743589744,4250.25641025641,3992.82051282051,4137.4358974359,1665,1693,19.684,19.6496982574463,0,0,0,0,2/8/2015 6:20:35 AM,
112,0,410,4441.02564102564,4043.07692307692,3979.48717948718,4299.48717948718,4510.25641025641,4423.07692307692,4313.84615384615,4440,4635.89743589744,4089.23076923077,4257.94871794872,4233.33333333333,3992.30769230769,4139.48717948718,1666,1692,19.693,19.6496982574463,0,0,0,0,2/8/2015 6:20:35 AM,
113,0,437,4437.94871794872,4038.97435897436,3967.69230769231,4303.58974358974,4482.5641025641,4411.28205128205,4313.84615384615,4435.38461538462,4638.46153846154,4093.33333333333,4261.53846153846,4208.20512820513,4011.28205128205,4195.38461538462,1665,1693,19.7,19.6496982574463,0,0,0,0,2/8/2015 6:20:35 AM,
114,0,423,4445.64102564103,4045.12820512821,3962.5641025641,4316.92307692308,4527.17948717949,4394.8717948718,4313.84615384615,4422.05128205128,4628.71794871795,4091.28205128205,4270.76923076923,4209.23076923077,4009.74358974359,4185.12820512821,1666,1692,19.708,19.6496982574463,0,0,0,0,2/8/2015 6:20:35 AM,
115,0,453,4450.76923076923,4049.23076923077,3958.97435897436,4316.41025641026,4564.61538461538,4395.89743589744,4313.84615384615,4419.48717948718,4621.53846153846,4083.58974358974,4264.61538461538,4215.38461538462,4005.12820512821,4142.5641025641,1665,1693,19.716,19.6496982574463,0,0,0,0,2/8/2015 6:20:35 AM,
116,0,410,4446.66666666667,4046.15384615385,3957.94871794872,4302.5641025641,4527.17948717949,4411.28205128205,4313.84615384615,4425.64102564103,4632.30769230769,4084.10256410256,4254.35897435897,4219.48717948718,3999.48717948718,4127.17948717949,1666,1693,19.724,19.6496982574463,0,0,0,0,2/8/2015 6:20:35 AM,
117,0,437,4444.61538461538,4035.38461538462,3968.20512820513,4294.8717948718,4492.82051282051,4408.20512820513,4313.84615384615,4425.64102564103,4641.53846153846,4090.25641025641,4260,4227.69230769231,3986.66666666667,4116.41025641026,1665,1692,19.732,19.6496982574463,0,0,0,0,2/8/2015 6:20:35 AM,
118,0,423,4437.94871794872,4030.76923076923,3968.20512820513,4295.89743589744,4500.51282051282,4390.76923076923,4313.84615384615,4426.15384615385,4641.53846153846,4093.33333333333,4267.17948717949,4214.35897435897,3989.23076923077,4134.8717948718,1666,1693,19.739,19.6496982574463,0,0,0,0,2/8/2015 6:20:35 AM,
119,0,453,4426.66666666667,4038.97435897436,3957.4358974359,4301.53846153846,4503.07692307692,4389.74358974359,4313.84615384615,4429.23076923077,4639.48717948718,4089.23076923077,4262.05128205128,4203.58974358974,4001.02564102564,4154.8717948718,1666,1692,19.747,19.6496982574463,0,0,0,0,2/8/2015 6:20:35 AM,
120,0,410,4440.51282051282,4051.28205128205,3963.07692307692,4312.30769230769,4512.30769230769,4405.12820512821,4313.84615384615,4428.20512820513,4640.51282051282,4086.15384615385,4264.10256410256,4217.4358974359,4002.5641025641,4133.84615384615,1665,1693,19.754,19.6496982574463,0,0,0,0,2/8/2015 6:20:35 AM,
121,0,437,4462.5641025641,4055.38461538462,3971.28205128205,4313.84615384615,4530.76923076923,4413.33333333333,4313.84615384615,4433.84615384615,4644.10256410256,4096.41025641026,4272.30769230769,4215.38461538462,4004.61538461539,4131.79487179487,1666,1693,19.762,19.6496982574463,0,0,0,0,2/8/2015 6:20:35 AM,
122,0,423,4450.25641025641,4048.20512820513,3971.28205128205,4301.53846153846,4516.41025641026,4411.79487179487,4313.84615384615,4440.51282051282,4643.07692307692,4107.17948717949,4269.74358974359,4212.30769230769,4011.79487179487,4156.92307692308,1665,1694,19.77,19.6496982574463,0,0,0,0,2/8/2015 6:20:35 AM,
123,0,453,4454.35897435897,4055.89743589744,3973.33333333333,4302.5641025641,4505.12820512821,4407.69230769231,4313.84615384615,4432.82051282051,4639.48717948718,4102.5641025641,4269.74358974359,4237.94871794872,4023.58974358974,4167.17948717949,1665,1692,19.778,19.6496982574463,0,0,0,0,2/8/2015 6:20:35 AM,
124,0,410,4495.38461538462,4082.5641025641,3983.58974358974,4323.58974358974,4522.05128205128,4406.66666666667,4313.84615384615,4426.66666666667,4641.53846153846,4097.94871794872,4278.97435897436,4245.64102564103,4031.79487179487,4190.25641025641,1664,1693,19.786,19.6496982574463,0,0,0,0,2/8/2015 6:20:35 AM,
125,0,437,4514.35897435897,4095.38461538462,3995.38461538462,4329.74358974359,4524.61538461538,4402.5641025641,4313.84615384615,4430.76923076923,4640.51282051282,4098.97435897436,4282.05128205128,4227.69230769231,4034.35897435898,4224.61538461538,1665,1692,19.793,19.7748069763184,0,0,0,0,2/8/2015 6:20:35 AM,
126,0,423,4521.53846153846,4100.51282051282,4004.61538461539,4324.61538461538,4508.20512820513,4391.79487179487,4313.84615384615,4429.74358974359,4629.74358974359,4086.66666666667,4288.20512820513,4233.33333333333,4047.17948717949,4220.51282051282,1664,1691,19.801,19.7748069763184,0,0,0,0,2/8/2015 6:20:35 AM,
127,0,453,4545.64102564103,4118.46153846154,4009.23076923077,4327.69230769231,4506.15384615385,4396.41025641026,4313.84615384615,4428.71794871795,4631.28205128205,4076.92307692308,4299.48717948718,4256.92307692308,4061.02564102564,4219.48717948718,1664,1690,19.809,19.7748069763184,0,0,0,0,2/8/2015 6:20:35 AM,
128,0,410,4561.02564102564,4121.02564102564,4023.58974358974,4321.02564102564,4496.92307692308,4405.64102564103,4313.84615384615,4432.30769230769,4633.84615384615,4085.64102564103,4289.23076923077,4260.51282051282,4051.28205128205,4253.84615384615,1664,1689,19.817,19.7748069763184,0,0,0,0,2/8/2015 6:20:35 AM,
0,0,449,4565.12820512821,4104.61538461538,4038.46153846154,4315.89743589744,4482.5641025641,4398.46153846154,4313.84615384615,4427.69230769231,4620.51282051282,4081.02564102564,4272.82051282051,4265.64102564103,4040.51282051282,4271.79487179487,1664,1692,19.825,19.7748069763184,0,0,0,0,2/8/2015 6:20:35 AM,
1,0,441,4581.02564102564,4109.23076923077,4025.64102564103,4330.25641025641,4508.71794871795,4398.97435897436,4313.84615384615,4424.61538461538,4621.02564102564,4069.74358974359,4282.5641025641,4275.89743589744,4053.84615384615,4274.35897435897,1665,1691,19.833,19.7748069763184,0,0,0,0,2/8/2015 6:20:35 AM,
2,0,464,4591.28205128205,4127.69230769231,4015.38461538462,4338.46153846154,4542.05128205128,4419.48717948718,4313.84615384615,4436.92307692308,4642.05128205128,4082.5641025641,4298.97435897436,4270.25641025641,4069.74358974359,4278.97435897436,1664,1693,19.84,19.7748069763184,0,0,0,0,2/8/2015 6:20:35 AM,
3,0,491,4587.69230769231,4130.25641025641,4031.79487179487,4336.92307692308,4534.35897435897,4423.58974358974,4313.84615384615,4443.07692307692,4649.74358974359,4095.89743589744,4300,4269.74358974359,4068.20512820513,4269.74358974359,1665,1692,19.848,19.7748069763184,0,0,0,0,2/8/2015 6:20:35 AM,
4,0,478,4594.8717948718,4124.61538461538,4040,4340.51282051282,4517.94871794872,4412.30769230769,4313.84615384615,4431.79487179487,4641.53846153846,4090.76923076923,4291.28205128205,4279.48717948718,4062.05128205128,4283.07692307692,1665,1694,19.856,19.7748069763184,0,0,0,0,2/8/2015 6:20:36 AM,
5,0,463,4610.25641025641,4127.17948717949,4030.76923076923,4346.66666666667,4527.17948717949,4417.4358974359,4313.84615384615,4424.10256410256,4639.48717948718,4089.23076923077,4290.76923076923,4272.82051282051,4061.53846153846,4310.25641025641,1666,1693,19.864,19.7748069763184,0,0,0,0,2/8/2015 6:20:36 AM,
6,0,481,4591.28205128205,4129.74358974359,4029.74358974359,4342.05128205128,4538.46153846154,4429.23076923077,4313.84615384615,4427.69230769231,4641.53846153846,4094.35897435898,4295.38461538462,4261.53846153846,4055.38461538462,4268.71794871795,1665,1693,19.872,19.7748069763184,0,0,0,0,2/8/2015 6:20:36 AM,
7,0,0,4554.8717948718,4119.48717948718,4028.20512820513,4324.10256410256,4534.8717948718,4434.35897435897,4313.84615384615,4427.69230769231,4636.92307692308,4090.76923076923,4289.74358974359,4268.20512820513,4039.48717948718,4211.28205128205,1665,1690,19.879,19.7748069763184,0,0,0,0,2/8/2015 6:20:36 AM,
8,0,411,4563.07692307692,4105.12820512821,4012.82051282051,4318.46153846154,4538.97435897436,4434.35897435897,4313.84615384615,4419.48717948718,4631.79487179487,4093.84615384615,4276.92307692308,4263.07692307692,4030.25641025641,4237.94871794872,1665,1690,19.887,19.7748069763184,0,0,0,0,2/8/2015 6:20:36 AM,
9,0,425,4582.5641025641,4107.69230769231,3998.97435897436,4338.46153846154,4560,4433.84615384615,4313.84615384615,4416.41025641026,4635.89743589744,4105.64102564103,4277.4358974359,4233.84615384615,4035.38461538462,4275.89743589744,1665,1690,19.895,19.7748069763184,0,0,0,0,2/8/2015 6:20:36 AM,
10,0,423,4543.07692307692,4114.35897435897,4002.05128205128,4334.8717948718,4552.82051282051,4437.4358974359,4313.84615384615,4418.97435897436,4641.53846153846,4106.15384615385,4282.05128205128,4233.84615384615,4028.20512820513,4225.12820512821,1665,1688,19.902,19.7748069763184,0,0,0,0,2/8/2015 6:20:36 AM,
11,0,453,4504.61538461538,4104.10256410256,4009.74358974359,4306.66666666667,4521.53846153846,4446.66666666667,4313.84615384615,4420.51282051282,4641.53846153846,4102.05128205128,4268.20512820513,4254.35897435897,4007.17948717949,4176.41025641026,1663,1690,19.911,19.7748069763184,0,0,0,0,2/8/2015 6:20:36 AM,
12,0,408,4528.20512820513,4099.48717948718,3995.38461538462,4309.74358974359,4534.8717948718,4450.25641025641,4313.84615384615,4414.8717948718,4641.02564102564,4107.17948717949,4257.94871794872,4237.94871794872,4006.66666666667,4194.8717948718,1664,1689,19.919,19.8999137878418,0,0,0,0,2/8/2015 6:20:36 AM,
13,0,437,4533.84615384615,4101.02564102564,3979.48717948718,4322.05128205128,4566.15384615385,4437.4358974359,4313.84615384615,4408.20512820513,4642.5641025641,4106.15384615385,4266.66666666667,4206.66666666667,4018.97435897436,4192.82051282051,1663,1690,19.926,19.8999137878418,0,0,0,0,2/8/2015 6:20:36 AM,
14,0,423,4502.5641025641,4089.74358974359,3987.69230769231,4312.82051282051,4545.12820512821,4426.66666666667,4313.84615384615,4417.4358974359,4645.64102564103,4091.79487179487,4267.17948717949,4215.89743589744,4012.30769230769,4159.48717948718,1664,1692,19.934,19.8999137878418,0,0,0,0,2/8/2015 6:20:36 AM,
15,0,453,4499.48717948718,4081.53846153846,3996.41025641026,4302.5641025641,4517.4358974359,4432.30769230769,4313.84615384615,4427.69230769231,4648.71794871795,4091.79487179487,4251.28205128205,4235.89743589744,3997.4358974359,4155.89743589744,1663,1693,19.942,19.8999137878418,0,0,0,0,2/8/2015 6:20:36 AM,
16,0,0,4509.23076923077,4088.71794871795,3987.69230769231,4304.61538461538,4525.12820512821,4432.82051282051,4313.84615384615,4418.46153846154,4647.17948717949,4099.48717948718,4245.12820512821,4224.61538461538,3997.94871794872,4165.12820512821,1663,1694,19.951,19.9311904907227,0,0,0,0,2/8/2015 6:20:36 AM,
17,0,0,4505.64102564103,4103.07692307692,3977.94871794872,4316.92307692308,4535.38461538462,4427.17948717949,4313.84615384615,4408.20512820513,4645.64102564103,4096.41025641026,4259.48717948718,4205.64102564103,4006.66666666667,4182.05128205128,1663,1694,19.959,19.9311904907227,0,0,0,0,2/8/2015 6:20:36 AM,
18,0,0,4505.12820512821,4106.15384615385,3985.12820512821,4326.66666666667,4544.61538461538,4436.41025641026,4313.84615384615,4415.38461538462,4648.20512820513,4096.92307692308,4262.5641025641,4211.79487179487,4003.58974358974,4177.4358974359,1663,1694,19.966,19.9311904907227,0,0,0,0,2/8/2015 6:20:36 AM,
19,0,0,4493.33333333333,4086.15384615385,4001.53846153846,4313.84615384615,4554.8717948718,4445.12820512821,4313.84615384615,4422.5641025641,4651.28205128205,4105.12820512821,4247.69230769231,4230.25641025641,3988.71794871795,4129.74358974359,1663,1692,19.974,19.9311904907227,0,0,0,0,2/8/2015 6:20:36 AM,
20,0,0,4476.41025641026,4067.69230769231,4006.66666666667,4293.33333333333,4549.23076923077,4427.17948717949,4313.84615384615,4417.4358974359,4650.76923076923,4109.23076923077,4249.74358974359,4233.84615384615,3986.15384615385,4130.76923076923,1664,1691,19.981,19.9624671936035,0,0,0,0,2/8/2015 6:20:36 AM,
21,0,0,4487.17948717949,4078.97435897436,4001.53846153846,4299.48717948718,4529.74358974359,4408.71794871795,4313.84615384615,4412.82051282051,4644.10256410256,4109.23076923077,4264.10256410256,4231.28205128205,3997.4358974359,4178.97435897436,1664,1691,19.989,19.9624671936035,0,0,0,0,2/8/2015 6:20:36 AM,
22,0,0,4510.25641025641,4092.82051282051,3992.82051282051,4316.92307692308,4524.61538461538,4418.46153846154,4313.84615384615,4415.38461538462,4641.02564102564,4110.76923076923,4255.89743589744,4230.25641025641,3997.94871794872,4176.92307692308,1664,1691,19.997,19.9624671936035,0,0,0,0,2/8/2015 6:20:36 AM,
23,0,0,4513.33333333333,4091.79487179487,3987.17948717949,4321.02564102564,4552.30769230769,4442.05128205128,4313.84615384615,4424.10256410256,4649.23076923077,4109.74358974359,4242.5641025641,4220,3995.89743589744,4157.94871794872,1664,1691,20.005,19.9624671936035,0,0,0,0,2/8/2015 6:20:36 AM,
24,0,0,4481.02564102564,4087.69230769231,3993.84615384615,4311.28205128205,4568.71794871795,4446.66666666667,4313.84615384615,4429.74358974359,4652.82051282051,4106.15384615385,4257.4358974359,4213.84615384615,3998.97435897436,4152.82051282051,1664,1692,20.013,19.9624671936035,0,0,0,0,2/8/2015 6:20:36 AM,
25,0,0,4452.82051282051,4076.41025641026,3994.35897435898,4298.46153846154,4546.15384615385,4431.79487179487,4313.84615384615,4426.66666666667,4643.07692307692,4104.61538461538,4261.02564102564,4218.97435897436,3988.20512820513,4124.10256410256,1663,1695,20.021,19.9624671936035,0,0,0,0,2/8/2015 6:20:36 AM,
26,0,0,4462.5641025641,4074.8717948718,3975.38461538462,4302.5641025641,4533.33333333333,4425.64102564103,4313.84615384615,4421.53846153846,4637.94871794872,4102.5641025641,4233.33333333333,4214.8717948718,3967.69230769231,4114.35897435897,1665,1694,20.029,19.9624671936035,0,0,0,0,2/8/2015 6:20:36 AM,
27,0,0,4483.58974358974,4087.69230769231,3977.94871794872,4306.66666666667,4541.53846153846,4430.76923076923,4313.84615384615,4418.46153846154,4643.58974358974,4105.12820512821,4227.69230769231,4213.33333333333,3967.69230769231,4142.05128205128,1663,1693,20.036,19.9624671936035,0,0,0,0,2/8/2015 6:20:36 AM,
28,0,0,4486.66666666667,4090.25641025641,4000.51282051282,4300,4524.10256410256,4423.07692307692,4313.84615384615,4420,4646.66666666667,4112.30769230769,4248.20512820513,4223.58974358974,3986.15384615385,4152.82051282051,1664,1693,20.044,20.0250225067139,0,0,0,0,2/8/2015 6:20:36 AM,
29,0,0,4482.5641025641,4085.64102564103,3995.89743589744,4304.10256410256,4517.4358974359,4414.8717948718,4313.84615384615,4425.64102564103,4648.71794871795,4120,4250.76923076923,4215.38461538462,3990.76923076923,4153.33333333333,1664,1692,20.051,20.0250225067139,0,0,0,0,2/8/2015 6:20:36 AM,
30,0,0,4476.92307692308,4094.35897435898,3974.8717948718,4314.35897435897,4538.46153846154,4422.05128205128,4313.84615384615,4427.69230769231,4649.23076923077,4124.10256410256,4245.12820512821,4198.97435897436,3978.46153846154,4146.66666666667,1663,1694,20.059,20.0250225067139,0,0,0,0,2/8/2015 6:20:36 AM,
31,0,0,4470.25641025641,4098.97435897436,3974.8717948718,4302.5641025641,4532.30769230769,4431.79487179487,4313.84615384615,4426.66666666667,4648.20512820513,4118.46153846154,4244.61538461538,4210.25641025641,3971.79487179487,4107.69230769231,1664,1693,20.067,20.0250225067139,0,0,0,0,2/8/2015 6:20:36 AM,
32,0,0,4476.41025641026,4094.8717948718,3982.05128205128,4297.94871794872,4514.35897435897,4424.10256410256,4313.84615384615,4425.12820512821,4648.20512820513,4103.58974358974,4241.53846153846,4232.30769230769,3975.89743589744,4079.48717948718,1664,1694,20.075,20.0562992095947,0,0,0,0,2/8/2015 6:20:36 AM,
33,0,0,4487.69230769231,4101.02564102564,3978.46153846154,4313.33333333333,4523.07692307692,4416.41025641026,4313.84615384615,4418.97435897436,4645.12820512821,4096.41025641026,4243.07692307692,4228.71794871795,3982.05128205128,4122.5641025641,1664,1693,20.083,20.0562992095947,0,0,0,0,2/8/2015 6:20:36 AM,
34,0,0,4490.76923076923,4107.17948717949,3980.51282051282,4309.74358974359,4540,4424.61538461538,4313.84615384615,4417.94871794872,4649.23076923077,4109.23076923077,4251.79487179487,4214.35897435897,3991.28205128205,4165.12820512821,1663,1693,20.091,20.0562992095947,0,0,0,0,2/8/2015 6:20:36 AM,
35,0,0,4475.89743589744,4103.07692307692,4001.53846153846,4294.35897435897,4537.4358974359,4425.64102564103,4313.84615384615,4419.48717948718,4652.82051282051,4119.48717948718,4253.33333333333,4218.97435897436,3993.84615384615,4132.30769230769,1664,1693,20.098,20.0562992095947,0,0,0,0,2/8/2015 6:20:36 AM,
36,0,0,4449.23076923077,4088.71794871795,4005.12820512821,4288.20512820513,4521.53846153846,4410.76923076923,4313.84615384615,4412.30769230769,4637.94871794872,4113.33333333333,4241.53846153846,4223.58974358974,3977.94871794872,4100.51282051282,1664,1694,20.106,20.0562992095947,0,0,0,0,2/8/2015 6:20:36 AM,
37,0,0,4469.23076923077,4084.10256410256,3976.41025641026,4298.46153846154,4516.92307692308,4404.61538461538,4313.84615384615,4407.69230769231,4628.71794871795,4112.30769230769,4222.5641025641,4215.89743589744,3963.07692307692,4104.10256410256,1664,1694,20.114,20.0562992095947,0,0,0,0,2/8/2015 6:20:36 AM,
38,0,0,4512.82051282051,4106.66666666667,3966.66666666667,4317.94871794872,4537.94871794872,4420.51282051282,4313.33333333333,4414.8717948718,4649.23076923077,4110.25641025641,4234.8717948718,4215.89743589744,3978.46153846154,4111.28205128205,1663,1693,20.122,20.0562992095947,0,0,0,0,2/8/2015 6:20:36 AM,
39,0,0,4492.82051282051,4111.28205128205,3992.82051282051,4315.89743589744,4558.46153846154,4428.20512820513,4313.84615384615,4410.25641025641,4657.4358974359,4105.64102564103,4268.20512820513,4222.5641025641,3995.38461538462,4127.69230769231,1663,1692,20.13,20.0562992095947,0,0,0,0,2/8/2015 6:20:36 AM,
40,0,0,4454.8717948718,4084.10256410256,4003.07692307692,4293.33333333333,4547.17948717949,4412.30769230769,4313.84615384615,4395.38461538462,4635.89743589744,4112.82051282051,4253.84615384615,4219.48717948718,3973.33333333333,4140.51282051282,1663,1690,20.138,20.0562992095947,0,0,0,0,2/8/2015 6:20:36 AM,
41,0,0,4482.05128205128,4083.58974358974,3979.48717948718,4289.23076923077,4530.76923076923,4400.51282051282,4312.82051282051,4394.35897435897,4632.30769230769,4123.07692307692,4225.64102564103,4213.84615384615,3958.97435897436,4145.12820512821,1662,1692,20.145,20.0562992095947,0,0,0,0,2/8/2015 6:20:36 AM,
42,0,0,4510.25641025641,4110.25641025641,3968.20512820513,4302.5641025641,4538.46153846154,4411.28205128205,4313.84615384615,4397.94871794872,4648.71794871795,4124.61538461538,4240.51282051282,4212.30769230769,3988.20512820513,4138.97435897436,1663,1692,20.153,20.0562992095947,0,0,0,0,2/8/2015 6:20:36 AM,
43,0,0,4494.35897435897,4111.79487179487,3982.05128205128,4303.58974358974,4543.58974358974,4423.07692307692,4317.4358974359,4394.8717948718,4652.82051282051,4118.46153846154,4255.38461538462,4212.82051282051,4001.02564102564,4113.84615384615,1662,1692,20.161,20.0562992095947,0,0,0,0,2/8/2015 6:20:36 AM,
44,0,0,4485.12820512821,4101.02564102564,3991.79487179487,4309.74358974359,4545.12820512821,4429.74358974359,4319.48717948718,4394.8717948718,4649.23076923077,4109.23076923077,4252.82051282051,4216.41025641026,3986.66666666667,4110.25641025641,1662,1692,20.169,20.1501293182373,0,0,0,0,2/8/2015 6:20:36 AM,
45,0,0,4482.5641025641,4108.71794871795,3991.79487179487,4320,4553.84615384615,4439.48717948718,4318.97435897436,4395.38461538462,4647.17948717949,4097.4358974359,4260.51282051282,4221.53846153846,3985.64102564103,4136.41025641026,1662,1692,20.177,20.1501293182373,0,0,0,0,2/8/2015 6:20:36 AM,
46,0,0,4474.35897435897,4113.33333333333,3987.69230769231,4307.17948717949,4548.71794871795,4427.69230769231,4319.48717948718,4392.30769230769,4646.66666666667,4090.25641025641,4256.92307692308,4220.51282051282,3984.10256410256,4129.74358974359,1662,1693,20.184,20.1501293182373,0,0,0,0,2/8/2015 6:20:36 AM,
47,0,0,4467.69230769231,4098.97435897436,3982.5641025641,4289.74358974359,4531.28205128205,4409.23076923077,4319.48717948718,4395.89743589744,4649.23076923077,4097.94871794872,4234.8717948718,4213.33333333333,3971.79487179487,4100,1662,1692,20.192,20.1501293182373,0,0,0,0,2/8/2015 6:20:36 AM,
48,0,0,4470.25641025641,4088.71794871795,3984.61538461539,4296.41025641026,4529.74358974359,4417.94871794872,4318.97435897436,4399.48717948718,4649.74358974359,4117.4358974359,4235.38461538462,4212.82051282051,3980.51282051282,4102.05128205128,1662,1692,20.2,20.1501293182373,0,0,0,0,2/8/2015 6:20:36 AM,
49,0,0,4495.38461538462,4099.48717948718,3989.74358974359,4314.35897435897,4546.15384615385,4436.41025641026,4318.97435897436,4395.89743589744,4645.12820512821,4124.61538461538,4255.89743589744,4220,3992.82051282051,4106.15384615385,1663,1691,20.208,20.1501293182373,0,0,0,0,2/8/2015 6:20:36 AM,
50,0,0,4513.84615384615,4112.30769230769,3986.15384615385,4316.41025641026,4553.33333333333,4440.51282051282,4318.97435897436,4403.07692307692,4650.76923076923,4114.8717948718,4268.71794871795,4220,3991.79487179487,4111.28205128205,1663,1692,20.216,20.1501293182373,0,0,0,0,2/8/2015 6:20:36 AM,
51,0,0,4494.35897435897,4107.17948717949,3988.20512820513,4300.51282051282,4540.51282051282,4432.82051282051,4318.97435897436,4410.25641025641,4657.94871794872,4115.89743589744,4267.17948717949,4216.41025641026,3993.33333333333,4141.02564102564,1663,1692,20.225,20.1501293182373,0,0,0,0,2/8/2015 6:20:36 AM,
52,0,0,4484.10256410256,4100,3993.84615384615,4290.76923076923,4530.25641025641,4425.12820512821,4318.97435897436,4398.46153846154,4656.92307692308,4124.10256410256,4260.51282051282,4225.64102564103,3994.35897435898,4142.5641025641,1662,1693,20.232,20.1501293182373,0,0,0,0,2/8/2015 6:20:36 AM,
53,0,0,4496.92307692308,4108.20512820513,3993.84615384615,4304.61538461538,4542.05128205128,4430.76923076923,4318.97435897436,4394.8717948718,4652.30769230769,4122.05128205128,4260,4234.8717948718,3990.25641025641,4106.15384615385,1664,1692,20.24,20.1501293182373,0,0,0,0,2/8/2015 6:20:36 AM,
54,0,0,4476.92307692308,4109.23076923077,3995.89743589744,4319.48717948718,4548.71794871795,4444.61538461538,4318.97435897436,4409.23076923077,4648.20512820513,4123.07692307692,4258.97435897436,4226.15384615385,3987.69230769231,4106.66666666667,1662,1692,20.248,20.1501293182373,0,0,0,0,2/8/2015 6:20:36 AM,
55,0,0,4456.92307692308,4100.51282051282,3995.89743589744,4309.23076923077,4542.5641025641,4446.15384615385,4318.97435897436,4414.35897435897,4648.71794871795,4127.17948717949,4258.97435897436,4215.89743589744,3995.89743589744,4155.89743589744,1663,1692,20.256,20.1501293182373,0,0,0,0,2/8/2015 6:20:36 AM,
56,0,0,4477.94871794872,4102.05128205128,3989.74358974359,4305.64102564103,4554.35897435897,4441.53846153846,4318.46153846154,4411.79487179487,4656.92307692308,4123.58974358974,4267.69230769231,4212.30769230769,4010.76923076923,4160.51282051282,1663,1692,20.264,20.1501293182373,0,0,0,0,2/8/2015 6:20:36 AM,
57,0,0,4495.38461538462,4108.71794871795,3988.20512820513,4315.89743589744,4572.30769230769,4441.53846153846,4319.48717948718,4411.28205128205,4657.94871794872,4121.02564102564,4268.20512820513,4218.97435897436,4007.69230769231,4116.92307692308,1663,1694,20.271,20.1501293182373,0,0,0,0,2/8/2015 6:20:36 AM,
58,0,0,4491.79487179487,4109.74358974359,3996.92307692308,4307.69230769231,4574.35897435897,4440,4318.46153846154,4413.33333333333,4649.23076923077,4120,4251.79487179487,4242.5641025641,3987.17948717949,4108.20512820513,1663,1694,20.279,20.1501293182373,0,0,0,0,2/8/2015 6:20:36 AM,
59,0,0,4494.8717948718,4106.66666666667,4007.69230769231,4300,4558.46153846154,4442.5641025641,4316.92307692308,4423.58974358974,4655.38461538462,4123.07692307692,4252.30769230769,4245.64102564103,3989.74358974359,4142.05128205128,1663,1696,20.287,20.1501293182373,0,0,0,0,2/8/2015 6:20:36 AM,
60,0,0,4485.64102564103,4098.97435897436,4006.15384615385,4307.69230769231,4537.4358974359,4444.10256410256,4317.94871794872,4426.66666666667,4668.20512820513,4133.84615384615,4267.69230769231,4218.46153846154,4012.82051282051,4164.61538461538,1663,1696,20.295,20.2752361297607,0,0,0,0,2/8/2015 6:20:36 AM,
61,0,0,4472.30769230769,4092.82051282051,3993.33333333333,4312.30769230769,4542.5641025641,4436.41025641026,4318.97435897436,4413.84615384615,4663.58974358974,4130.76923076923,4265.64102564103,4218.46153846154,4005.64102564103,4148.71794871795,1663,1697,20.303,20.2752361297607,0,0,0,0,2/8/2015 6:20:36 AM,
62,0,0,4484.61538461538,4101.02564102564,3987.17948717949,4314.8717948718,4573.84615384615,4438.46153846154,4318.46153846154,4408.20512820513,4650.25641025641,4120.51282051282,4263.58974358974,4237.94871794872,3986.15384615385,4140,1664,1696,20.311,20.2752361297607,0,0,0,0,2/8/2015 6:20:36 AM,
63,0,0,4484.61538461538,4104.61538461538,3998.46153846154,4313.33333333333,4577.94871794872,4456.41025641026,4317.4358974359,4414.8717948718,4647.17948717949,4123.58974358974,4270.76923076923,4233.84615384615,3996.41025641026,4158.46153846154,1663,1697,20.317,20.2752361297607,0,0,0,0,2/8/2015 6:20:36 AM,
64,0,449,4476.92307692308,4096.92307692308,4006.66666666667,4303.58974358974,4541.02564102564,4457.94871794872,4318.46153846154,4417.4358974359,4649.74358974359,4121.02564102564,4268.71794871795,4226.66666666667,4010.25641025641,4162.05128205128,1664,1695,20.326,20.2752361297607,0,0,0,0,2/8/2015 6:20:36 AM,
65,0,441,4492.30769230769,4089.74358974359,3994.8717948718,4298.97435897436,4528.20512820513,4438.46153846154,4317.94871794872,4410.25641025641,4649.23076923077,4111.79487179487,4261.53846153846,4230.25641025641,4006.66666666667,4152.82051282051,1664,1695,20.334,20.2752361297607,0,0,0,0,2/8/2015 6:20:36 AM,
66,0,465,4488.20512820513,4074.8717948718,3978.97435897436,4299.48717948718,4553.33333333333,4434.35897435897,4313.84615384615,4404.10256410256,4645.64102564103,4119.48717948718,4260,4222.05128205128,4000.51282051282,4151.28205128205,1666,1695,20.341,20.2752361297607,0,0,0,0,2/8/2015 6:20:36 AM,
67,0,491,4463.07692307692,4074.35897435898,3980.51282051282,4299.48717948718,4552.30769230769,4446.15384615385,4312.82051282051,4408.71794871795,4644.61538461538,4127.17948717949,4268.20512820513,4210.25641025641,4002.05128205128,4146.66666666667,1664,1694,20.35,20.2752361297607,0,0,0,0,2/8/2015 6:20:36 AM,
68,0,478,4469.23076923077,4099.48717948718,3987.69230769231,4308.20512820513,4533.84615384615,4439.48717948718,4316.92307692308,4414.35897435897,4650.25641025641,4118.46153846154,4281.02564102564,4215.89743589744,4010.25641025641,4136.41025641026,1665,1695,20.357,20.2752361297607,0,0,0,0,2/8/2015 6:20:36 AM,
69,0,463,4482.05128205128,4108.20512820513,3994.8717948718,4315.89743589744,4540,4424.61538461538,4320,4410.76923076923,4657.4358974359,4113.84615384615,4273.84615384615,4228.71794871795,4013.33333333333,4128.71794871795,1665,1692,20.365,20.2752361297607,0,0,0,0,2/8/2015 6:20:36 AM,
70,0,481,4478.97435897436,4097.94871794872,4007.69230769231,4310.76923076923,4526.15384615385,4430.25641025641,4318.46153846154,4411.28205128205,4658.97435897436,4114.35897435897,4258.97435897436,4232.82051282051,4004.10256410256,4113.33333333333,1664,1693,20.373,20.2752361297607,0,0,0,0,2/8/2015 6:20:36 AM,
71,0,0,4501.02564102564,4106.15384615385,4007.17948717949,4308.71794871795,4500,4445.12820512821,4317.94871794872,4414.8717948718,4653.33333333333,4114.35897435897,4265.12820512821,4231.28205128205,4001.02564102564,4119.48717948718,1664,1693,20.381,20.2752361297607,0,0,0,0,2/8/2015 6:20:36 AM,
72,0,411,4516.41025641026,4112.82051282051,3993.33333333333,4312.30769230769,4533.84615384615,4448.71794871795,4319.48717948718,4411.79487179487,4647.17948717949,4123.58974358974,4267.69230769231,4230.76923076923,4005.12820512821,4138.46153846154,1663,1694,20.389,20.2752361297607,0,0,0,0,2/8/2015 6:20:36 AM,
73,0,425,4497.4358974359,4091.79487179487,3991.28205128205,4307.17948717949,4567.69230769231,4443.58974358974,4319.48717948718,4415.89743589744,4651.79487179487,4125.12820512821,4260,4223.07692307692,3994.8717948718,4127.69230769231,1664,1693,20.397,20.2752361297607,0,0,0,0,2/8/2015 6:20:36 AM,
74,0,423,4488.20512820513,4080.51282051282,3994.8717948718,4310.76923076923,4546.15384615385,4442.5641025641,4318.97435897436,4421.53846153846,4658.46153846154,4107.69230769231,4265.12820512821,4214.35897435897,3983.58974358974,4113.33333333333,1663,1693,20.404,20.2752361297607,0,0,0,0,2/8/2015 6:20:36 AM,
75,0,453,4497.94871794872,4092.30769230769,3990.76923076923,4313.33333333333,4523.58974358974,4446.15384615385,4318.97435897436,4415.89743589744,4654.35897435897,4102.05128205128,4261.53846153846,4224.10256410256,3984.61538461539,4107.69230769231,1663,1692,20.412,20.2752361297607,0,0,0,0,2/8/2015 6:20:36 AM,
76,0,408,4490.76923076923,4089.23076923077,3989.23076923077,4301.02564102564,4514.35897435897,4444.10256410256,4318.97435897436,4410.25641025641,4650.76923076923,4120,4254.35897435897,4230.25641025641,3990.76923076923,4113.33333333333,1663,1692,20.42,20.4003448486328,0,0,0,0,2/8/2015 6:20:36 AM,
77,0,437,4480,4081.02564102564,3987.69230769231,4298.97435897436,4536.41025641026,4438.46153846154,4318.97435897436,4411.79487179487,4655.89743589744,4132.30769230769,4264.61538461538,4215.89743589744,4004.10256410256,4148.20512820513,1664,1690,20.427,20.4003448486328,0,0,0,0,2/8/2015 6:20:36 AM,
78,0,423,4488.71794871795,4090.25641025641,3988.71794871795,4303.07692307692,4589.74358974359,4446.15384615385,4318.97435897436,4413.33333333333,4659.48717948718,4123.07692307692,4274.35897435897,4212.30769230769,4007.69230769231,4160.51282051282,1665,1690,20.435,20.4003448486328,0,0,0,0,2/8/2015 6:20:36 AM,
79,0,453,4498.46153846154,4098.46153846154,3997.94871794872,4304.10256410256,4594.8717948718,4460,4318.97435897436,4417.4358974359,4658.46153846154,4121.02564102564,4266.15384615385,4226.15384615385,3991.79487179487,4124.61538461538,1665,1690,20.442,20.4003448486328,0,0,0,0,2/8/2015 6:20:36 AM,
80,0,408,4486.66666666667,4092.30769230769,3997.4358974359,4310.25641025641,4546.15384615385,4455.38461538462,4318.97435897436,4421.53846153846,4656.41025641026,4128.20512820513,4251.28205128205,4224.61538461538,3986.15384615385,4118.97435897436,1665,1691,20.45,20.4003448486328,0,0,0,0,2/8/2015 6:20:36 AM,
81,0,437,4470.76923076923,4087.17948717949,3988.71794871795,4308.71794871795,4533.84615384615,4440.51282051282,4318.97435897436,4418.46153846154,4656.41025641026,4126.66666666667,4254.8717948718,4213.33333333333,4000.51282051282,4155.38461538462,1665,1690,20.459,20.4003448486328,0,0,0,0,2/8/2015 6:20:36 AM,
82,0,423,4481.02564102564,4096.41025641026,3992.82051282051,4300,4555.38461538462,4440.51282051282,4318.97435897436,4421.53846153846,4662.05128205128,4128.20512820513,4267.17948717949,4211.79487179487,4011.28205128205,4165.64102564103,1665,1691,20.467,20.4003448486328,0,0,0,0,2/8/2015 6:20:36 AM,
83,0,453,4498.46153846154,4105.64102564103,3996.92307692308,4308.71794871795,4562.5641025641,4445.64102564103,4318.97435897436,4429.23076923077,4668.20512820513,4132.30769230769,4270.25641025641,4217.4358974359,4007.17948717949,4152.82051282051,1666,1690,20.475,20.4003448486328,0,0,0,0,2/8/2015 6:20:36 AM,
84,0,408,4488.20512820513,4099.48717948718,3991.79487179487,4310.76923076923,4561.53846153846,4434.8717948718,4318.97435897436,4427.17948717949,4667.69230769231,4123.58974358974,4264.61538461538,4222.05128205128,3992.30769230769,4131.79487179487,1665,1691,20.483,20.4003448486328,0,0,0,0,2/8/2015 6:20:36 AM,
85,0,437,4460,4087.17948717949,3984.61538461539,4285.12820512821,4546.66666666667,4423.58974358974,4318.97435897436,4421.02564102564,4663.07692307692,4116.92307692308,4259.48717948718,4217.4358974359,3983.58974358974,4100,1665,1692,20.489,20.4003448486328,0,0,0,0,2/8/2015 6:20:36 AM,
86,0,423,4452.82051282051,4089.74358974359,3984.10256410256,4275.38461538462,4532.30769230769,4425.12820512821,4318.97435897436,4415.89743589744,4656.41025641026,4122.05128205128,4249.74358974359,4212.82051282051,3994.35897435898,4097.94871794872,1664,1690,20.497,20.4003448486328,0,0,0,0,2/8/2015 6:20:36 AM,
87,0,453,4470.25641025641,4090.76923076923,4003.58974358974,4288.20512820513,4544.61538461538,4427.17948717949,4318.97435897436,4414.35897435897,4655.38461538462,4119.48717948718,4245.12820512821,4220,4004.61538461539,4132.30769230769,1664,1691,20.505,20.4003448486328,0,0,0,0,2/8/2015 6:20:36 AM,
88,0,408,4487.17948717949,4088.71794871795,4016.41025641026,4297.94871794872,4557.4358974359,4428.71794871795,4318.97435897436,4420,4665.64102564103,4116.92307692308,4263.58974358974,4227.17948717949,4003.58974358974,4155.89743589744,1664,1691,20.513,20.4003448486328,0,0,0,0,2/8/2015 6:20:36 AM,
89,0,437,4502.05128205128,4107.17948717949,3997.94871794872,4297.94871794872,4557.94871794872,4440.51282051282,4318.97435897436,4424.10256410256,4676.92307692308,4125.64102564103,4278.46153846154,4218.46153846154,4013.84615384615,4166.66666666667,1664,1693,20.521,20.4003448486328,0,0,0,0,2/8/2015 6:20:36 AM,
90,0,423,4492.30769230769,4109.23076923077,3989.74358974359,4290.25641025641,4558.46153846154,4445.64102564103,4318.97435897436,4416.92307692308,4671.28205128205,4123.58974358974,4267.69230769231,4212.30769230769,4017.4358974359,4148.71794871795,1664,1694,20.528,20.4003448486328,0,0,0,0,2/8/2015 6:20:36 AM,
91,0,453,4453.84615384615,4083.07692307692,4000.51282051282,4294.35897435897,4551.79487179487,4433.33333333333,4318.97435897436,4411.79487179487,4656.41025641026,4116.41025641026,4248.71794871795,4218.97435897436,3989.74358974359,4098.97435897436,1663,1694,20.536,20.4003448486328,0,0,0,0,2/8/2015 6:20:36 AM,
92,0,408,4441.02564102564,4082.05128205128,3997.94871794872,4303.58974358974,4548.20512820513,4428.71794871795,4318.97435897436,4413.84615384615,4657.4358974359,4116.92307692308,4246.66666666667,4212.82051282051,3978.97435897436,4103.07692307692,1664,1693,20.544,20.5254516601563,0,0,0,0,2/8/2015 6:20:36 AM,
93,0,437,4462.5641025641,4098.46153846154,3993.33333333333,4292.82051282051,4566.15384615385,4436.92307692308,4318.97435897436,4414.8717948718,4666.15384615385,4109.74358974359,4247.17948717949,4200.51282051282,4001.53846153846,4141.02564102564,1663,1693,20.553,20.5254516601563,0,0,0,0,2/8/2015 6:20:36 AM,
94,0,423,4458.46153846154,4086.15384615385,3995.89743589744,4276.41025641026,4571.28205128205,4433.84615384615,4318.97435897436,4416.92307692308,4665.64102564103,4104.10256410256,4243.07692307692,4207.17948717949,4000.51282051282,4125.64102564103,1664,1693,20.561,20.5254516601563,0,0,0,0,2/8/2015 6:20:36 AM,
95,0,453,4443.58974358974,4079.48717948718,3997.94871794872,4279.48717948718,4549.74358974359,4424.61538461538,4318.97435897436,4418.46153846154,4663.07692307692,4117.4358974359,4250.76923076923,4213.84615384615,3986.66666666667,4121.02564102564,1663,1693,20.569,20.5254516601563,0,0,0,0,2/8/2015 6:20:36 AM,
96,0,408,4465.12820512821,4101.02564102564,4009.23076923077,4294.35897435897,4551.28205128205,4427.17948717949,4318.97435897436,4412.82051282051,4664.61538461539,4126.66666666667,4255.89743589744,4218.46153846154,3999.48717948718,4144.61538461538,1664,1692,20.576,20.5567283630371,0,0,0,0,2/8/2015 6:20:36 AM,
97,0,437,4481.53846153846,4114.35897435897,4015.89743589744,4308.20512820513,4577.4358974359,4427.17948717949,4318.97435897436,4403.58974358974,4661.02564102564,4121.53846153846,4255.38461538462,4231.28205128205,4011.28205128205,4121.53846153846,1663,1691,20.583,20.5567283630371,0,0,0,0,2/8/2015 6:20:36 AM,
98,0,423,4474.35897435897,4107.69230769231,4004.61538461539,4308.71794871795,4587.69230769231,4428.20512820513,4318.97435897436,4401.53846153846,4660.51282051282,4123.07692307692,4264.61538461538,4226.15384615385,4009.23076923077,4116.92307692308,1663,1693,20.591,20.5567283630371,0,0,0,0,2/8/2015 6:20:36 AM,
99,0,453,4472.82051282051,4098.97435897436,4003.07692307692,4291.28205128205,4580.51282051282,4450.76923076923,4318.97435897436,4406.15384615385,4663.58974358974,4130.25641025641,4272.30769230769,4209.74358974359,4007.69230769231,4155.89743589744,1664,1692,20.599,20.5567283630371,0,0,0,0,2/8/2015 6:20:36 AM,
100,0,408,4475.38461538462,4103.07692307692,4006.15384615385,4283.58974358974,4563.07692307692,4464.10256410256,4318.97435897436,4406.15384615385,4658.46153846154,4124.10256410256,4258.97435897436,4210.76923076923,4007.17948717949,4154.8717948718,1662,1693,20.608,20.5567283630371,0,0,0,0,2/8/2015 6:20:36 AM,
101,0,437,4454.35897435897,4104.10256410256,3999.48717948718,4287.17948717949,4533.33333333333,4442.5641025641,4318.97435897436,4399.48717948718,4658.46153846154,4117.94871794872,4249.23076923077,4213.84615384615,4008.71794871795,4122.05128205128,1663,1692,20.615,20.5567283630371,0,0,0,0,2/8/2015 6:20:36 AM,
102,0,423,4432.30769230769,4087.69230769231,4000.51282051282,4281.02564102564,4524.10256410256,4423.07692307692,4318.97435897436,4394.8717948718,4663.07692307692,4126.66666666667,4245.12820512821,4215.38461538462,3996.92307692308,4089.23076923077,1663,1692,20.623,20.5567283630371,0,0,0,0,2/8/2015 6:20:36 AM,
103,0,453,4445.64102564103,4077.4358974359,3996.41025641026,4280.51282051282,4545.64102564103,4425.64102564103,4318.97435897436,4395.89743589744,4661.02564102564,4124.10256410256,4241.53846153846,4217.4358974359,3976.41025641026,4092.82051282051,1663,1692,20.631,20.5567283630371,0,0,0,0,2/8/2015 6:20:36 AM,
104,0,408,4457.94871794872,4090.25641025641,3969.23076923077,4286.15384615385,4565.12820512821,4428.20512820513,4318.97435897436,4396.92307692308,4659.48717948718,4105.64102564103,4256.92307692308,4190.76923076923,3995.38461538462,4159.48717948718,1662,1693,20.638,20.5567283630371,0,0,0,0,2/8/2015 6:20:36 AM,
105,0,437,4442.05128205128,4098.46153846154,3966.66666666667,4281.53846153846,4558.97435897436,4426.15384615385,4318.97435897436,4400,4663.07692307692,4106.15384615385,4267.69230769231,4176.41025641026,4027.17948717949,4180,1664,1693,20.646,20.5567283630371,0,0,0,0,2/8/2015 6:20:36 AM,
106,0,423,4426.66666666667,4084.10256410256,4005.64102564103,4273.33333333333,4534.8717948718,4425.64102564103,4318.97435897436,4401.02564102564,4662.5641025641,4121.53846153846,4253.84615384615,4221.53846153846,4005.12820512821,4111.28205128205,1663,1693,20.654,20.5567283630371,0,0,0,0,2/8/2015 6:20:36 AM,
107,0,453,4440,4081.02564102564,4016.92307692308,4277.94871794872,4535.38461538462,4424.61538461538,4318.97435897436,4397.4358974359,4654.35897435897,4121.02564102564,4246.15384615385,4246.66666666667,3980,4108.71794871795,1664,1694,20.661,20.5567283630371,0,0,0,0,2/8/2015 6:20:36 AM,
108,0,408,4471.28205128205,4096.92307692308,3991.79487179487,4286.66666666667,4565.64102564103,4426.66666666667,4318.97435897436,4394.8717948718,4652.30769230769,4117.4358974359,4265.64102564103,4211.28205128205,4002.05128205128,4162.05128205128,1664,1692,20.669,20.6505584716797,0,0,0,0,2/8/2015 6:20:36 AM,
109,0,437,4474.8717948718,4096.41025641026,3994.8717948718,4286.15384615385,4570.76923076923,4428.71794871795,4318.97435897436,4397.4358974359,4661.02564102564,4122.05128205128,4274.8717948718,4197.94871794872,4022.5641025641,4151.28205128205,1663,1695,20.677,20.6505584716797,0,0,0,0,2/8/2015 6:20:36 AM,
110,0,423,4435.89743589744,4077.94871794872,4005.12820512821,4277.94871794872,4548.20512820513,4423.58974358974,4318.97435897436,4392.82051282051,4662.05128205128,4114.35897435897,4248.20512820513,4216.41025641026,4004.61538461539,4124.61538461538,1664,1693,20.685,20.6505584716797,0,0,0,0,2/8/2015 6:20:36 AM,
111,0,453,4418.46153846154,4086.15384615385,3981.53846153846,4276.92307692308,4541.53846153846,4415.89743589744,4318.97435897436,4382.05128205128,4651.79487179487,4109.74358974359,4230.76923076923,4210.76923076923,3983.07692307692,4137.94871794872,1664,1694,20.693,20.6505584716797,0,0,0,0,2/8/2015 6:20:36 AM,
112,0,408,4453.33333333333,4109.74358974359,3968.20512820513,4283.58974358974,4537.94871794872,4417.4358974359,4318.97435897436,4384.10256410256,4653.33333333333,4119.48717948718,4253.33333333333,4195.38461538462,3986.66666666667,4149.23076923077,1664,1693,20.701,20.6505584716797,0,0,0,0,2/8/2015 6:20:36 AM,
113,0,437,4467.69230769231,4100,3992.30769230769,4281.53846153846,4542.05128205128,4427.17948717949,4318.97435897436,4396.92307692308,4665.64102564103,4112.82051282051,4281.02564102564,4201.02564102564,4004.10256410256,4127.17948717949,1663,1693,20.708,20.6505584716797,0,0,0,0,2/8/2015 6:20:36 AM,
114,0,423,4449.23076923077,4084.10256410256,4000,4275.38461538462,4571.79487179487,4429.23076923077,4318.97435897436,4400,4665.12820512821,4103.07692307692,4264.10256410256,4203.58974358974,4007.17948717949,4113.33333333333,1663,1692,20.716,20.6505584716797,0,0,0,0,2/8/2015 6:20:36 AM,
115,0,453,4444.10256410256,4095.38461538462,3993.33333333333,4275.38461538462,4577.4358974359,4425.64102564103,4318.97435897436,4392.82051282051,4655.38461538462,4114.8717948718,4230.76923076923,4207.17948717949,3990.25641025641,4131.79487179487,1663,1691,20.724,20.6505584716797,0,0,0,0,2/8/2015 6:20:36 AM,
116,0,408,4440.51282051282,4101.02564102564,4003.58974358974,4283.07692307692,4548.20512820513,4428.20512820513,4318.97435897436,4394.8717948718,4660.51282051282,4124.10256410256,4242.05128205128,4214.8717948718,3989.23076923077,4156.41025641026,1664,1691,20.732,20.6505584716797,0,0,0,0,2/8/2015 6:20:36 AM,
117,0,437,4443.58974358974,4093.33333333333,4005.64102564103,4288.71794871795,4545.64102564103,4425.64102564103,4318.97435897436,4401.02564102564,4667.69230769231,4118.46153846154,4275.38461538462,4207.69230769231,4015.38461538462,4180,1662,1690,20.74,20.6505584716797,0,0,0,0,2/8/2015 6:20:36 AM,
118,0,423,4471.79487179487,4096.92307692308,3989.74358974359,4283.07692307692,4564.10256410256,4413.33333333333,4318.97435897436,4397.4358974359,4653.33333333333,4117.4358974359,4274.35897435897,4206.15384615385,4016.92307692308,4186.66666666667,1663,1692,20.747,20.6505584716797,0,0,0,0,2/8/2015 6:20:36 AM,
119,0,453,4485.12820512821,4106.15384615385,3985.12820512821,4279.48717948718,4568.71794871795,4406.66666666667,4318.97435897436,4394.8717948718,4643.58974358974,4117.94871794872,4255.38461538462,4216.92307692308,3989.23076923077,4157.4358974359,1663,1691,20.755,20.6505584716797,0,0,0,0,2/8/2015 6:20:36 AM,
120,0,408,4464.61538461538,4113.33333333333,4001.02564102564,4284.61538461538,4571.28205128205,4424.10256410256,4318.97435897436,4402.05128205128,4658.97435897436,4117.94871794872,4261.53846153846,4215.89743589744,3993.84615384615,4141.53846153846,1662,1694,20.763,20.6505584716797,0,0,0,0,2/8/2015 6:20:36 AM,
121,0,437,4460,4115.89743589744,4011.28205128205,4290.76923076923,4568.20512820513,4441.02564102564,4318.97435897436,4402.5641025641,4668.71794871795,4126.66666666667,4282.05128205128,4213.33333333333,4027.69230769231,4171.79487179487,1664,1693,20.771,20.6505584716797,0,0,0,0,2/8/2015 6:20:36 AM,
122,0,423,4475.89743589744,4108.71794871795,4000.51282051282,4298.46153846154,4558.46153846154,4435.89743589744,4318.97435897436,4400,4663.58974358974,4129.74358974359,4285.64102564103,4218.46153846154,4033.33333333333,4180,1663,1694,20.779,20.6505584716797,0,0,0,0,2/8/2015 6:20:36 AM,
123,0,453,4467.17948717949,4105.64102564103,3988.71794871795,4291.79487179487,4570.76923076923,4434.35897435897,4318.97435897436,4408.20512820513,4665.12820512821,4120,4260,4215.38461538462,4009.74358974359,4150.25641025641,1664,1694,20.787,20.6505584716797,0,0,0,0,2/8/2015 6:20:36 AM,
124,0,408,4438.46153846154,4106.66666666667,3997.4358974359,4276.41025641026,4574.35897435897,4443.07692307692,4318.97435897436,4415.38461538462,4665.12820512821,4116.92307692308,4233.33333333333,4214.35897435897,3996.41025641026,4132.82051282051,1663,1694,20.794,20.7756671905518,0,0,0,0,2/8/2015 6:20:36 AM,
125,0,437,4440.51282051282,4103.07692307692,4012.82051282051,4285.12820512821,4553.33333333333,4436.41025641026,4318.97435897436,4411.28205128205,4658.46153846154,4122.5641025641,4255.89743589744,4222.05128205128,4010.25641025641,4134.8717948718,1664,1694,20.802,20.7756671905518,0,0,0,0,2/8/2015 6:20:36 AM,
126,0,423,4472.82051282051,4102.05128205128,4006.66666666667,4299.48717948718,4555.89743589744,4425.12820512821,4318.97435897436,4411.28205128205,4661.02564102564,4124.10256410256,4287.17948717949,4221.02564102564,4021.02564102564,4150.25641025641,1664,1693,20.81,20.7756671905518,0,0,0,0,2/8/2015 6:20:36 AM,
127,0,453,4482.05128205128,4106.66666666667,3989.23076923077,4289.23076923077,4573.84615384615,4425.12820512821,4318.97435897436,4419.48717948718,4668.71794871795,4122.5641025641,4272.30769230769,4211.79487179487,4014.8717948718,4168.71794871795,1664,1694,20.818,20.7756671905518,0,0,0,0,2/8/2015 6:20:36 AM,
128,0,408,4457.94871794872,4105.12820512821,3988.20512820513,4276.92307692308,4563.07692307692,4424.61538461538,4318.97435897436,4420,4674.35897435897,4125.12820512821,4254.35897435897,4213.33333333333,4007.69230769231,4169.74358974359,1664,1693,20.826,20.7756671905518,0,0,0,0,2/8/2015 6:20:36 AM,
0,0,449,4445.12820512821,4100,4002.05128205128,4280,4549.23076923077,4424.61538461538,4318.97435897436,4416.92307692308,4671.79487179487,4122.5641025641,4267.17948717949,4220.51282051282,4012.82051282051,4164.10256410256,1663,1693,20.832,20.7756671905518,0,0,0,0,2/8/2015 6:20:36 AM,
1,0,441,4449.23076923077,4093.33333333333,4006.66666666667,4285.12820512821,4562.5641025641,4428.20512820513,4318.97435897436,4415.38461538462,4665.64102564103,4122.5641025641,4270.25641025641,4212.30769230769,4018.46153846154,4159.48717948718,1664,1692,20.841,20.7756671905518,0,0,0,0,2/8/2015 6:20:36 AM,
2,0,464,4444.61538461538,4088.20512820513,3994.8717948718,4287.69230769231,4571.28205128205,4429.23076923077,4318.97435897436,4415.38461538462,4666.66666666667,4134.35897435897,4255.89743589744,4201.53846153846,4016.92307692308,4150.25641025641,1664,1691,20.849,20.7756671905518,0,0,0,0,2/8/2015 6:20:36 AM,
3,0,491,4449.74358974359,4091.28205128205,3991.79487179487,4282.05128205128,4558.97435897436,4430.25641025641,4318.97435897436,4415.38461538462,4674.8717948718,4137.4358974359,4255.89743589744,4211.79487179487,4013.84615384615,4125.64102564103,1664,1690,20.857,20.7756671905518,0,0,0,0,2/8/2015 6:20:37 AM,
4,0,478,4470.76923076923,4096.41025641026,3996.92307692308,4276.92307692308,4554.8717948718,4432.30769230769,4318.97435897436,4414.8717948718,4674.8717948718,4121.02564102564,4261.53846153846,4221.02564102564,4008.71794871795,4116.41025641026,1665,1690,20.865,20.7756671905518,0,0,0,0,2/8/2015 6:20:37 AM,
5,0,463,4468.20512820513,4098.46153846154,3993.84615384615,4285.12820512821,4566.66666666667,4434.35897435897,4318.97435897436,4411.28205128205,4664.61538461539,4117.94871794872,4262.05128205128,4213.84615384615,4006.15384615385,4147.17948717949,1665,1689,20.873,20.7756671905518,0,0,0,0,2/8/2015 6:20:37 AM,
6,0,481,4443.07692307692,4093.84615384615,3994.8717948718,4285.64102564103,4564.10256410256,4430.76923076923,4318.97435897436,4404.10256410256,4655.38461538462,4131.28205128205,4260,4212.82051282051,4003.07692307692,4151.79487179487,1665,1690,20.88,20.7756671905518,0,0,0,0,2/8/2015 6:20:37 AM,
7,0,0,4438.46153846154,4091.28205128205,4001.53846153846,4281.02564102564,4546.66666666667,4424.61538461538,4318.97435897436,4401.53846153846,4653.33333333333,4126.66666666667,4262.05128205128,4221.53846153846,4002.05128205128,4127.17948717949,1664,1690,20.888,20.7756671905518,0,0,0,0,2/8/2015 6:20:37 AM,
8,0,411,4467.69230769231,4103.07692307692,4003.07692307692,4290.25641025641,4548.20512820513,4431.79487179487,4318.97435897436,4401.02564102564,4656.41025641026,4115.38461538462,4269.23076923077,4224.61538461538,4011.79487179487,4153.84615384615,1665,1692,20.896,20.7756671905518,0,0,0,0,2/8/2015 6:20:37 AM,
9,0,425,4486.15384615385,4116.41025641026,3997.94871794872,4296.92307692308,4567.17948717949,4443.58974358974,4318.97435897436,4397.4358974359,4657.4358974359,4120.51282051282,4264.61538461538,4212.30769230769,4020.51282051282,4206.66666666667,1664,1692,20.904,20.7756671905518,0,0,0,0,2/8/2015 6:20:37 AM,
10,0,423,4449.74358974359,4113.33333333333,4007.69230769231,4288.20512820513,4578.97435897436,4441.53846153846,4318.97435897436,4398.97435897436,4659.48717948718,4122.05128205128,4248.71794871795,4203.07692307692,4020,4184.61538461538,1662,1694,20.911,20.7756671905518,0,0,0,0,2/8/2015 6:20:37 AM,
11,0,453,4435.38461538462,4103.07692307692,4020.51282051282,4277.4358974359,4583.07692307692,4435.38461538462,4318.97435897436,4404.61538461538,4667.17948717949,4124.10256410256,4251.79487179487,4214.35897435897,4015.38461538462,4138.97435897436,1664,1693,20.919,20.9007740020752,0,0,0,0,2/8/2015 6:20:37 AM,
12,0,408,4482.5641025641,4103.07692307692,4005.12820512821,4279.48717948718,4569.23076923077,4432.30769230769,4318.97435897436,4402.05128205128,4669.23076923077,4132.30769230769,4267.17948717949,4216.41025641026,4018.46153846154,4162.5641025641,1663,1694,20.927,20.9007740020752,0,0,0,0,2/8/2015 6:20:37 AM,
13,0,437,4496.92307692308,4107.17948717949,3981.02564102564,4289.74358974359,4545.12820512821,4427.17948717949,4318.97435897436,4396.41025641026,4665.64102564103,4130.76923076923,4261.02564102564,4198.97435897436,4024.10256410256,4194.35897435897,1663,1694,20.934,20.9007740020752,0,0,0,0,2/8/2015 6:20:37 AM,
14,0,423,4461.02564102564,4107.17948717949,3989.23076923077,4294.8717948718,4542.5641025641,4428.71794871795,4318.97435897436,4397.94871794872,4663.58974358974,4123.58974358974,4244.10256410256,4201.02564102564,4012.30769230769,4167.17948717949,1663,1694,20.942,20.9007740020752,0,0,0,0,2/8/2015 6:20:37 AM,
15,0,453,4463.58974358974,4106.15384615385,4009.74358974359,4290.76923076923,4572.82051282051,4441.02564102564,4318.97435897436,4399.48717948718,4664.10256410256,4122.5641025641,4245.64102564103,4221.53846153846,3993.33333333333,4160.51282051282,1664,1694,20.95,20.9007740020752,0,0,0,0,2/8/2015 6:20:37 AM,
16,0,0,4488.71794871795,4109.23076923077,4008.71794871795,4294.8717948718,4592.82051282051,4455.38461538462,4318.97435897436,4397.94871794872,4667.17948717949,4124.10256410256,4257.4358974359,4219.48717948718,4007.17948717949,4193.84615384615,1663,1694,20.958,20.9007740020752,0,0,0,0,2/8/2015 6:20:37 AM,
17,0,0,4477.4358974359,4109.23076923077,4002.05128205128,4296.41025641026,4572.82051282051,4463.58974358974,4318.97435897436,4399.48717948718,4671.79487179487,4128.20512820513,4255.89743589744,4203.58974358974,4031.79487179487,4172.82051282051,1663,1695,20.965,20.9007740020752,0,0,0,0,2/8/2015 6:20:37 AM,
18,0,0,4466.66666666667,4096.41025641026,3996.92307692308,4282.5641025641,4551.79487179487,4464.10256410256,4318.97435897436,4405.12820512821,4674.8717948718,4127.17948717949,4249.23076923077,4197.94871794872,4021.02564102564,4151.79487179487,1663,1694,20.973,20.9007740020752,0,0,0,0,2/8/2015 6:20:37 AM,
19,0,0,4465.64102564103,4091.28205128205,3989.74358974359,4281.02564102564,4551.79487179487,4459.48717948718,4318.97435897436,4407.69230769231,4673.33333333333,4120.51282051282,4251.28205128205,4200,4002.05128205128,4189.23076923077,1664,1695,20.982,20.9007740020752,0,0,0,0,2/8/2015 6:20:37 AM,
20,0,0,4437.94871794872,4094.35897435898,3986.15384615385,4289.23076923077,4554.8717948718,4447.69230769231,4318.97435897436,4402.05128205128,4666.66666666667,4118.97435897436,4247.69230769231,4202.5641025641,4001.02564102564,4183.58974358974,1664,1695,20.99,20.9007740020752,0,0,0,0,2/8/2015 6:20:37 AM,
21,0,0,4411.79487179487,4089.23076923077,3984.61538461539,4278.97435897436,4555.38461538462,4432.30769230769,4318.97435897436,4402.05128205128,4663.58974358974,4114.8717948718,4240,4198.97435897436,4004.10256410256,4140,1663,1697,20.997,20.9007740020752,0,0,0,0,2/8/2015 6:20:37 AM,
22,0,0,4433.33333333333,4078.97435897436,3992.30769230769,4269.74358974359,4552.30769230769,4428.71794871795,4318.97435897436,4406.15384615385,4667.69230769231,4103.07692307692,4243.58974358974,4198.46153846154,4002.05128205128,4145.12820512821,1664,1695,21.004,20.9007740020752,0,0,0,0,2/8/2015 6:20:37 AM,
23,0,0,4482.05128205128,4084.10256410256,3999.48717948718,4282.05128205128,4550.25641025641,4440.51282051282,4319.48717948718,4407.69230769231,4666.66666666667,4103.07692307692,4242.5641025641,4204.61538461538,3995.89743589744,4156.41025641026,1663,1695,21.013,20.9007740020752,0,0,0,0,2/8/2015 6:20:37 AM,
24,0,0,4505.12820512821,4103.07692307692,3989.23076923077,4285.64102564103,4557.4358974359,4445.64102564103,4319.48717948718,4407.69230769231,4662.5641025641,4113.84615384615,4233.84615384615,4202.05128205128,3998.97435897436,4150.25641025641,1664,1694,21.021,20.9007740020752,0,0,0,0,2/8/2015 6:20:37 AM,
25,0,0,4492.82051282051,4109.74358974359,3984.10256410256,4282.05128205128,4560.51282051282,4434.35897435897,4320,4407.69230769231,4662.05128205128,4122.5641025641,4245.12820512821,4198.97435897436,4015.38461538462,4167.69230769231,1664,1694,21.03,20.9007740020752,0,0,0,0,2/8/2015 6:20:37 AM,
26,0,0,4473.84615384615,4099.48717948718,4001.53846153846,4289.23076923077,4548.71794871795,4429.23076923077,4319.48717948718,4408.71794871795,4657.94871794872,4123.58974358974,4255.89743589744,4208.20512820513,4018.46153846154,4175.89743589744,1663,1695,21.038,20.9007740020752,0,0,0,0,2/8/2015 6:20:37 AM,
27,0,0,4481.53846153846,4092.30769230769,4011.28205128205,4290.25641025641,4554.35897435897,4440,4319.48717948718,4409.74358974359,4652.30769230769,4120,4242.5641025641,4212.82051282051,4001.02564102564,4166.15384615385,1663,1694,21.046,21.0258808135986,0,0,0,0,2/8/2015 6:20:37 AM,
28,0,0,4511.28205128205,4103.07692307692,4000.51282051282,4291.79487179487,4578.46153846154,4448.71794871795,4320,4414.8717948718,4661.02564102564,4120,4239.48717948718,4201.53846153846,4003.07692307692,4181.53846153846,1663,1695,21.053,21.0258808135986,0,0,0,0,2/8/2015 6:20:37 AM,
29,0,0,4516.92307692308,4112.82051282051,3992.30769230769,4301.02564102564,4576.41025641026,4447.69230769231,4318.97435897436,4419.48717948718,4674.35897435897,4125.64102564103,4256.92307692308,4194.35897435897,4024.10256410256,4193.33333333333,1663,1695,21.06,21.0258808135986,0,0,0,0,2/8/2015 6:20:37 AM,
30,0,0,4486.66666666667,4101.53846153846,4004.10256410256,4297.4358974359,4563.07692307692,4437.94871794872,4317.4358974359,4415.89743589744,4669.74358974359,4127.69230769231,4247.69230769231,4208.20512820513,4011.79487179487,4158.46153846154,1663,1695,21.068,21.0258808135986,0,0,0,0,2/8/2015 6:20:37 AM,
31,0,0,4471.79487179487,4092.82051282051,4022.05128205128,4289.23076923077,4581.53846153846,4433.84615384615,4317.94871794872,4412.30769230769,4664.61538461539,4131.79487179487,4223.07692307692,4220.51282051282,3988.20512820513,4139.48717948718,1663,1694,21.076,21.0571594238281,0,0,0,0,2/8/2015 6:20:37 AM,
32,0,0,4488.71794871795,4104.61538461538,4021.53846153846,4294.8717948718,4593.33333333333,4442.05128205128,4318.97435897436,4422.5641025641,4674.35897435897,4142.05128205128,4240.51282051282,4209.23076923077,4010.76923076923,4182.5641025641,1663,1697,21.084,21.0571594238281,0,0,0,0,2/8/2015 6:20:37 AM,
33,0,0,4492.82051282051,4110.76923076923,4007.69230769231,4297.4358974359,4571.79487179487,4449.74358974359,4318.46153846154,4429.74358974359,4679.48717948718,4141.02564102564,4268.71794871795,4199.48717948718,4042.5641025641,4216.92307692308,1664,1696,21.093,21.0571594238281,0,0,0,0,2/8/2015 6:20:37 AM,
34,0,0,4484.61538461538,4103.58974358974,4002.05128205128,4292.82051282051,4562.05128205128,4446.15384615385,4317.94871794872,4417.4358974359,4667.17948717949,4126.66666666667,4258.97435897436,4206.15384615385,4030.76923076923,4188.20512820513,1663,1696,21.1,21.0571594238281,0,0,0,0,2/8/2015 6:20:37 AM,
35,0,0,4494.8717948718,4107.17948717949,4006.66666666667,4295.38461538462,4572.82051282051,4444.10256410256,4317.94871794872,4413.84615384615,4661.53846153846,4118.97435897436,4245.12820512821,4214.35897435897,4010.25641025641,4145.12820512821,1665,1695,21.107,21.0571594238281,0,0,0,0,2/8/2015 6:20:37 AM,
36,0,0,4503.58974358974,4106.66666666667,4015.89743589744,4296.92307692308,4573.84615384615,4445.12820512821,4318.46153846154,4423.58974358974,4666.66666666667,4119.48717948718,4236.41025641026,4225.64102564103,4004.61538461539,4149.23076923077,1664,1693,21.116,21.0571594238281,0,0,0,0,2/8/2015 6:20:37 AM,
37,0,0,4491.79487179487,4092.82051282051,4021.53846153846,4296.92307692308,4567.69230769231,4442.5641025641,4318.97435897436,4427.17948717949,4671.28205128205,4120.51282051282,4228.71794871795,4226.66666666667,4004.10256410256,4188.20512820513,1664,1695,21.123,21.0571594238281,0,0,0,0,2/8/2015 6:20:37 AM,
38,0,0,4489.74358974359,4097.4358974359,4016.41025641026,4292.30769230769,4569.74358974359,4441.53846153846,4315.38461538462,4427.17948717949,4677.4358974359,4130.25641025641,4242.05128205128,4205.64102564103,4018.97435897436,4203.07692307692,1665,1693,21.131,21.0571594238281,0,0,0,0,2/8/2015 6:20:37 AM,
39,0,0,4504.61538461538,4107.17948717949,4009.74358974359,4286.66666666667,4581.02564102564,4441.02564102564,4311.79487179487,4429.23076923077,4676.41025641026,4141.53846153846,4251.28205128205,4203.07692307692,4032.82051282051,4188.71794871795,1664,1693,21.138,21.0571594238281,0,0,0,0,2/8/2015 6:20:37 AM,
40,0,0,4513.33333333333,4100.51282051282,4006.15384615385,4292.30769230769,4588.71794871795,4441.02564102564,4312.82051282051,4427.69230769231,4663.07692307692,4131.79487179487,4244.10256410256,4213.33333333333,4027.17948717949,4194.8717948718,1664,1692,21.146,21.0571594238281,0,0,0,0,2/8/2015 6:20:37 AM,
41,0,0,4502.05128205128,4096.92307692308,4001.53846153846,4298.97435897436,4575.38461538462,4445.12820512821,4313.33333333333,4427.17948717949,4660,4123.58974358974,4247.17948717949,4212.30769230769,4009.74358974359,4189.23076923077,1664,1692,21.155,21.0571594238281,0,0,0,0,2/8/2015 6:20:37 AM,
42,0,0,4487.17948717949,4103.07692307692,4005.64102564103,4294.35897435897,4551.79487179487,4444.61538461538,4312.30769230769,4429.74358974359,4672.30769230769,4133.33333333333,4241.02564102564,4223.07692307692,4004.10256410256,4164.61538461538,1665,1692,21.163,21.0571594238281,0,0,0,0,2/8/2015 6:20:37 AM,
43,0,0,4498.46153846154,4103.07692307692,4015.89743589744,4293.33333333333,4551.28205128205,4440.51282051282,4312.30769230769,4431.28205128205,4673.33333333333,4139.48717948718,4231.28205128205,4228.71794871795,4020.51282051282,4202.05128205128,1664,1692,21.171,21.1509895324707,0,0,0,0,2/8/2015 6:20:37 AM,
44,0,0,4515.38461538462,4098.97435897436,4015.89743589744,4300,4572.82051282051,4446.15384615385,4312.30769230769,4429.23076923077,4662.05128205128,4134.35897435897,4246.66666666667,4211.28205128205,4028.20512820513,4227.69230769231,1666,1693,21.178,21.1509895324707,0,0,0,0,2/8/2015 6:20:37 AM,
45,0,0,4507.69230769231,4097.94871794872,4009.23076923077,4295.89743589744,4579.48717948718,4456.92307692308,4312.30769230769,4427.17948717949,4662.5641025641,4134.35897435897,4250.76923076923,4211.79487179487,4018.97435897436,4180.51282051282,1664,1694,21.185,21.1509895324707,0,0,0,0,2/8/2015 6:20:37 AM,
46,0,0,4495.38461538462,4103.07692307692,4004.10256410256,4292.82051282051,4572.82051282051,4457.94871794872,4315.38461538462,4431.28205128205,4673.84615384615,4137.4358974359,4234.8717948718,4222.05128205128,4025.64102564103,4180.51282051282,1664,1694,21.194,21.1509895324707,0,0,0,0,2/8/2015 6:20:37 AM,
47,0,0,4500.51282051282,4111.79487179487,4011.79487179487,4300.51282051282,4578.46153846154,4455.89743589744,4318.97435897436,4441.02564102564,4679.48717948718,4134.8717948718,4231.28205128205,4217.4358974359,4031.79487179487,4223.07692307692,1665,1693,21.202,21.1509895324707,0,0,0,0,2/8/2015 6:20:37 AM,
48,0,0,4505.12820512821,4105.12820512821,4025.64102564103,4301.02564102564,4588.20512820513,4466.66666666667,4318.97435897436,4446.66666666667,4680.51282051282,4141.53846153846,4237.94871794872,4219.48717948718,4015.89743589744,4218.97435897436,1664,1694,21.209,21.1509895324707,0,0,0,0,2/8/2015 6:20:37 AM,
49,0,0,4506.66666666667,4096.92307692308,4015.38461538462,4294.8717948718,4597.4358974359,4476.92307692308,4317.94871794872,4444.61538461538,4681.02564102564,4151.28205128205,4252.30769230769,4220,4023.07692307692,4209.23076923077,1665,1693,21.217,21.1509895324707,0,0,0,0,2/8/2015 6:20:37 AM,
50,0,0,4508.20512820513,4102.05128205128,4004.61538461539,4303.58974358974,4587.17948717949,4469.74358974359,4319.48717948718,4444.10256410256,4679.48717948718,4145.64102564103,4256.41025641026,4212.30769230769,4042.05128205128,4198.97435897436,1664,1694,21.224,21.1509895324707,0,0,0,0,2/8/2015 6:20:37 AM,
51,0,0,4500,4109.74358974359,4020,4320.51282051282,4557.94871794872,4458.97435897436,4318.97435897436,4447.17948717949,4679.48717948718,4139.48717948718,4228.71794871795,4214.35897435897,4024.10256410256,4163.58974358974,1664,1694,21.232,21.1509895324707,0,0,0,0,2/8/2015 6:20:37 AM,
52,0,0,4497.94871794872,4104.61538461538,4029.23076923077,4315.89743589744,4560.51282051282,4458.97435897436,4316.92307692308,4445.12820512821,4678.97435897436,4140.51282051282,4218.97435897436,4215.38461538462,4006.15384615385,4174.8717948718,1663,1694,21.24,21.1509895324707,0,0,0,0,2/8/2015 6:20:37 AM,
53,0,0,4497.4358974359,4084.61538461539,4020.51282051282,4297.4358974359,4575.89743589744,4462.5641025641,4317.94871794872,4442.05128205128,4673.84615384615,4141.02564102564,4240.51282051282,4213.84615384615,4013.84615384615,4210.25641025641,1663,1694,21.248,21.1509895324707,0,0,0,0,2/8/2015 6:20:37 AM,
54,0,0,4493.33333333333,4080,4013.33333333333,4293.84615384615,4570.25641025641,4457.94871794872,4319.48717948718,4440.51282051282,4675.89743589744,4143.58974358974,4241.53846153846,4216.41025641026,4016.41025641026,4198.97435897436,1662,1695,21.256,21.1509895324707,0,0,0,0,2/8/2015 6:20:37 AM,
55,0,0,4507.17948717949,4098.46153846154,4009.23076923077,4298.97435897436,4587.69230769231,4461.53846153846,4318.46153846154,4441.53846153846,4688.20512820513,4148.71794871795,4230.76923076923,4215.38461538462,4013.84615384615,4181.53846153846,1663,1695,21.264,21.1509895324707,0,0,0,0,2/8/2015 6:20:37 AM,
56,0,0,4516.92307692308,4102.05128205128,4017.94871794872,4294.35897435897,4599.48717948718,4475.38461538462,4317.4358974359,4443.58974358974,4691.28205128205,4142.05128205128,4230.25641025641,4224.10256410256,4016.92307692308,4177.94871794872,1662,1696,21.271,21.1509895324707,0,0,0,0,2/8/2015 6:20:37 AM,
57,0,0,4504.61538461538,4086.15384615385,4038.97435897436,4291.79487179487,4568.20512820513,4472.82051282051,4317.94871794872,4441.53846153846,4686.66666666667,4135.38461538462,4230.76923076923,4233.84615384615,4020,4192.30769230769,1663,1695,21.278,21.1509895324707,0,0,0,0,2/8/2015 6:20:37 AM,
58,0,0,4505.64102564103,4092.30769230769,4033.33333333333,4307.69230769231,4583.58974358974,4460,4317.94871794872,4446.66666666667,4692.82051282051,4140,4238.46153846154,4232.30769230769,4020,4204.61538461538,1663,1694,21.287,21.1509895324707,0,0,0,0,2/8/2015 6:20:37 AM,
59,0,0,4528.20512820513,4112.82051282051,4011.79487179487,4317.94871794872,4625.12820512821,4460,4317.94871794872,4459.48717948718,4696.41025641026,4138.97435897436,4247.17948717949,4232.82051282051,4018.46153846154,4201.02564102564,1663,1694,21.295,21.2760963439941,0,0,0,0,2/8/2015 6:20:37 AM,
60,0,0,4530.25641025641,4107.69230769231,4008.71794871795,4305.64102564103,4598.97435897436,4462.5641025641,4318.97435897436,4455.38461538462,4686.15384615385,4135.89743589744,4238.97435897436,4227.69230769231,4020.51282051282,4213.33333333333,1663,1694,21.304,21.2760963439941,0,0,0,0,2/8/2015 6:20:37 AM,
61,0,0,4514.8717948718,4091.28205128205,4023.07692307692,4294.35897435897,4555.38461538462,4453.33333333333,4318.97435897436,4439.48717948718,4677.94871794872,4142.05128205128,4228.20512820513,4218.46153846154,4027.69230769231,4217.94871794872,1664,1692,21.311,21.2760963439941,0,0,0,0,2/8/2015 6:20:37 AM,
62,0,0,4517.4358974359,4096.92307692308,4042.05128205128,4304.10256410256,4554.8717948718,4457.4358974359,4318.97435897436,4438.46153846154,4680,4143.58974358974,4234.35897435897,4236.92307692308,4031.79487179487,4191.28205128205,1664,1692,21.319,21.2760963439941,0,0,0,0,2/8/2015 6:20:37 AM,
63,0,0,4531.79487179487,4113.84615384615,4035.89743589744,4315.38461538462,4586.15384615385,4475.89743589744,4318.97435897436,4438.46153846154,4681.02564102564,4136.92307692308,4244.61538461538,4256.41025641026,4027.69230769231,4204.10256410256,1664,1693,21.326,21.2760963439941,0,0,0,0,2/8/2015 6:20:37 AM,
64,0,449,4536.41025641026,4115.89743589744,4009.23076923077,4307.17948717949,4612.82051282051,4474.35897435897,4318.97435897436,4427.17948717949,4675.89743589744,4141.53846153846,4243.58974358974,4238.46153846154,4021.53846153846,4230.76923076923,1664,1693,21.334,21.2760963439941,0,0,0,0,2/8/2015 6:20:37 AM,
65,0,441,4520.51282051282,4102.5641025641,4006.15384615385,4295.89743589744,4604.61538461538,4461.02564102564,4318.97435897436,4426.66666666667,4670.76923076923,4153.84615384615,4228.20512820513,4224.10256410256,4020.51282051282,4204.61538461538,1665,1694,21.342,21.2760963439941,0,0,0,0,2/8/2015 6:20:37 AM,
66,0,465,4512.82051282051,4102.05128205128,4024.61538461539,4301.53846153846,4582.05128205128,4474.35897435897,4318.97435897436,4439.48717948718,4678.46153846154,4157.4358974359,4217.94871794872,4234.8717948718,4025.12820512821,4210.76923076923,1664,1693,21.35,21.2760963439941,0,0,0,0,2/8/2015 6:20:37 AM,
67,0,491,4521.02564102564,4118.97435897436,4036.41025641026,4311.79487179487,4567.69230769231,4494.35897435897,4318.97435897436,4446.15384615385,4691.79487179487,4154.35897435897,4237.94871794872,4249.74358974359,4032.82051282051,4248.71794871795,1664,1694,21.358,21.2760963439941,0,0,0,0,2/8/2015 6:20:37 AM,
68,0,478,4526.66666666667,4121.53846153846,4034.8717948718,4312.30769230769,4569.74358974359,4486.15384615385,4318.97435897436,4447.17948717949,4695.89743589744,4151.28205128205,4254.35897435897,4258.46153846154,4032.82051282051,4225.64102564103,1665,1692,21.366,21.2760963439941,0,0,0,0,2/8/2015 6:20:37 AM,
69,0,463,4533.84615384615,4108.71794871795,4024.61538461539,4308.20512820513,4597.4358974359,4471.79487179487,4318.97435897436,4446.66666666667,4694.35897435897,4152.30769230769,4240,4254.8717948718,4027.17948717949,4209.74358974359,1663,1691,21.374,21.2760963439941,0,0,0,0,2/8/2015 6:20:37 AM,
70,0,481,4537.94871794872,4104.61538461538,4024.10256410256,4306.66666666667,4609.23076923077,4467.17948717949,4318.97435897436,4445.64102564103,4694.35897435897,4155.89743589744,4224.61538461538,4246.66666666667,4031.79487179487,4237.94871794872,1664,1691,21.382,21.2760963439941,0,0,0,0,2/8/2015 6:20:37 AM,
71,0,0,4535.89743589744,4106.15384615385,4030.25641025641,4308.20512820513,4584.10256410256,4462.5641025641,4318.97435897436,4444.61538461538,4690.76923076923,4155.89743589744,4230.25641025641,4244.61538461538,4036.41025641026,4235.38461538462,1664,1691,21.389,21.2760963439941,0,0,0,0,2/8/2015 6:20:37 AM,
72,0,411,4537.94871794872,4104.10256410256,4023.58974358974,4310.25641025641,4576.41025641026,4463.07692307692,4318.97435897436,4443.58974358974,4686.66666666667,4150.76923076923,4235.89743589744,4249.23076923077,4030.25641025641,4208.20512820513,1664,1692,21.396,21.2760963439941,0,0,0,0,2/8/2015 6:20:37 AM,
73,0,425,4533.33333333333,4104.10256410256,4028.71794871795,4308.71794871795,4574.8717948718,4463.58974358974,4318.97435897436,4445.12820512821,4690.25641025641,4150.25641025641,4228.20512820513,4263.58974358974,4028.20512820513,4196.41025641026,1663,1693,21.404,21.2760963439941,0,0,0,0,2/8/2015 6:20:37 AM,
74,0,423,4523.07692307692,4106.15384615385,4042.5641025641,4312.82051282051,4550.25641025641,4457.4358974359,4318.97435897436,4440.51282051282,4691.28205128205,4160.51282051282,4233.33333333333,4269.74358974359,4039.48717948718,4202.5641025641,1665,1693,21.412,21.2760963439941,0,0,0,0,2/8/2015 6:20:37 AM,
75,0,455,4525.64102564103,4108.71794871795,4028.20512820513,4322.05128205128,4558.97435897436,4456.41025641026,4318.97435897436,4431.28205128205,4685.12820512821,4169.74358974359,4238.97435897436,4252.30769230769,4043.58974358974,4236.92307692308,1663,1693,21.421,21.4012050628662,0,0,0,0,2/8/2015 6:20:37 AM,
76,0,408,4527.17948717949,4107.69230769231,4020.51282051282,4315.89743589744,4596.92307692308,4465.12820512821,4318.97435897436,4434.35897435897,4678.97435897436,4161.02564102564,4221.53846153846,4251.79487179487,4030.25641025641,4242.5641025641,1664,1694,21.429,21.4012050628662,0,0,0,0,2/8/2015 6:20:37 AM,
77,0,437,4522.5641025641,4097.4358974359,4037.94871794872,4308.20512820513,4604.10256410256,4463.58974358974,4318.97435897436,4438.46153846154,4677.4358974359,4149.74358974359,4218.97435897436,4270.76923076923,4028.20512820513,4206.66666666667,1665,1693,21.437,21.4012050628662,0,0,0,0,2/8/2015 6:20:37 AM,
78,0,423,4527.17948717949,4100,4030.76923076923,4322.5641025641,4599.48717948718,4456.41025641026,4318.97435897436,4432.82051282051,4682.05128205128,4160.51282051282,4236.92307692308,4251.28205128205,4042.05128205128,4231.28205128205,1663,1693,21.444,21.4012050628662,0,0,0,0,2/8/2015 6:20:37 AM,
79,0,455,4510.25641025641,4109.74358974359,4012.82051282051,4331.28205128205,4601.02564102564,4463.58974358974,4318.97435897436,4433.84615384615,4688.20512820513,4169.74358974359,4229.74358974359,4223.07692307692,4042.5641025641,4283.58974358974,1664,1690,21.451,21.4012050628662,0,0,0,0,2/8/2015 6:20:37 AM,
80,0,408,4484.61538461538,4101.53846153846,4020,4313.84615384615,4585.64102564103,4472.82051282051,4318.97435897436,4442.5641025641,4689.23076923077,4167.17948717949,4208.71794871795,4236.41025641026,4033.84615384615,4255.38461538462,1663,1691,21.459,21.4012050628662,0,0,0,0,2/8/2015 6:20:37 AM,
81,0,437,4513.84615384615,4091.28205128205,4027.69230769231,4300.51282051282,4558.97435897436,4462.05128205128,4318.97435897436,4443.07692307692,4684.61538461539,4168.20512820513,4214.8717948718,4251.79487179487,4034.8717948718,4209.23076923077,1664,1689,21.467,21.4012050628662,0,0,0,0,2/8/2015 6:20:37 AM,
82,0,423,4552.30769230769,4101.53846153846,4015.89743589744,4310.25641025641,4567.17948717949,4453.33333333333,4319.48717948718,4443.58974358974,4685.64102564103,4162.05128205128,4224.61538461538,4245.12820512821,4036.92307692308,4218.97435897436,1663,1691,21.475,21.4012050628662,0,0,0,0,2/8/2015 6:20:37 AM,
83,0,455,4523.07692307692,4109.23076923077,4011.79487179487,4323.07692307692,4590.25641025641,4464.10256410256,4318.46153846154,4449.23076923077,4687.69230769231,4150.76923076923,4212.30769230769,4241.53846153846,4027.17948717949,4210.76923076923,1664,1692,21.483,21.4012050628662,0,0,0,0,2/8/2015 6:20:37 AM,
84,0,408,4477.4358974359,4087.17948717949,4020,4313.84615384615,4572.30769230769,4462.5641025641,4318.97435897436,4444.10256410256,4681.53846153846,4152.82051282051,4200,4237.4358974359,4022.05128205128,4179.48717948718,1664,1692,21.491,21.4012050628662,0,0,0,0,2/8/2015 6:20:37 AM,
85,0,437,4487.69230769231,4069.23076923077,4017.94871794872,4294.8717948718,4553.84615384615,4444.10256410256,4320.51282051282,4437.94871794872,4674.35897435897,4150.76923076923,4196.41025641026,4231.79487179487,4016.92307692308,4206.66666666667,1664,1693,21.499,21.4012050628662,0,0,0,0,2/8/2015 6:20:37 AM,
86,0,423,4518.97435897436,4084.61538461539,4001.02564102564,4300.51282051282,4578.46153846154,4441.02564102564,4315.38461538462,4442.5641025641,4675.89743589744,4135.38461538462,4195.89743589744,4235.38461538462,4007.69230769231,4246.15384615385,1663,1694,21.506,21.4012050628662,0,0,0,0,2/8/2015 6:20:37 AM,
87,0,455,4518.97435897436,4097.4358974359,3998.97435897436,4314.35897435897,4592.30769230769,4447.17948717949,4311.28205128205,4440,4682.05128205128,4139.48717948718,4201.02564102564,4233.33333333333,4019.48717948718,4226.66666666667,1664,1695,21.514,21.4012050628662,0,0,0,0,2/8/2015 6:20:37 AM,
88,0,408,4498.97435897436,4082.5641025641,4019.48717948718,4309.23076923077,4563.58974358974,4448.20512820513,4315.38461538462,4431.28205128205,4680,4156.41025641026,4199.48717948718,4228.20512820513,4030.25641025641,4194.35897435897,1664,1695,21.522,21.4012050628662,0,0,0,0,2/8/2015 6:20:37 AM,
89,0,437,4488.71794871795,4080.51282051282,4026.66666666667,4308.71794871795,4555.89743589744,4454.35897435897,4320,4436.41025641026,4677.4358974359,4153.84615384615,4185.12820512821,4231.79487179487,4016.92307692308,4215.89743589744,1663,1696,21.529,21.4012050628662,0,0,0,0,2/8/2015 6:20:37 AM,
90,0,423,4493.33333333333,4092.82051282051,4004.10256410256,4312.82051282051,4589.74358974359,4465.12820512821,4318.46153846154,4446.15384615385,4680.51282051282,4138.97435897436,4177.94871794872,4232.30769230769,4010.76923076923,4237.94871794872,1665,1696,21.538,21.4012050628662,0,0,0,0,2/8/2015 6:20:37 AM,
91,0,455,4503.07692307692,4086.15384615385,3988.71794871795,4309.74358974359,4594.35897435897,4455.38461538462,4317.4358974359,4436.92307692308,4678.46153846154,4134.8717948718,4190.76923076923,4229.23076923077,4020.51282051282,4198.97435897436,1664,1697,21.545,21.5263118743896,0,0,0,0,2/8/2015 6:20:37 AM,
92,0,408,4506.66666666667,4080,4007.69230769231,4316.92307692308,4557.4358974359,4441.53846153846,4317.4358974359,4430.25641025641,4677.4358974359,4143.07692307692,4195.38461538462,4231.28205128205,4020.51282051282,4171.28205128205,1665,1696,21.554,21.5263118743896,0,0,0,0,2/8/2015 6:20:37 AM,
93,0,437,4505.12820512821,4092.82051282051,4023.58974358974,4331.28205128205,4556.41025641026,4452.82051282051,4318.46153846154,4441.02564102564,4682.5641025641,4152.82051282051,4182.5641025641,4230.76923076923,4021.53846153846,4208.71794871795,1663,1695,21.562,21.5263118743896,0,0,0,0,2/8/2015 6:20:37 AM,
94,0,423,4507.17948717949,4094.8717948718,4010.25641025641,4322.5641025641,4591.28205128205,4467.69230769231,4319.48717948718,4446.15384615385,4681.02564102564,4155.38461538462,4177.4358974359,4229.74358974359,4026.66666666667,4228.71794871795,1664,1695,21.568,21.5263118743896,0,0,0,0,2/8/2015 6:20:37 AM,
95,0,455,4509.74358974359,4076.92307692308,4001.02564102564,4303.07692307692,4584.61538461538,4464.10256410256,4318.46153846154,4442.5641025641,4678.46153846154,4146.15384615385,4184.10256410256,4231.79487179487,4012.82051282051,4207.17948717949,1664,1695,21.576,21.5575885772705,0,0,0,0,2/8/2015 6:20:37 AM,
96,0,408,4505.64102564103,4074.35897435898,4003.07692307692,4302.5641025641,4565.12820512821,4456.41025641026,4317.4358974359,4448.71794871795,4685.12820512821,4135.89743589744,4190.25641025641,4230.76923076923,4009.74358974359,4220.51282051282,1664,1696,21.584,21.5575885772705,0,0,0,0,2/8/2015 6:20:37 AM,
97,0,437,4506.15384615385,4093.84615384615,3998.97435897436,4319.48717948718,4581.02564102564,4458.46153846154,4318.46153846154,4456.92307692308,4691.28205128205,4140,4189.23076923077,4228.20512820513,4026.15384615385,4239.48717948718,1663,1694,21.591,21.5575885772705,0,0,0,0,2/8/2015 6:20:37 AM,
98,0,423,4511.79487179487,4095.89743589744,3997.4358974359,4329.74358974359,4574.35897435897,4462.5641025641,4317.94871794872,4452.30769230769,4690.76923076923,4152.82051282051,4175.89743589744,4230.76923076923,4025.64102564103,4208.71794871795,1663,1694,21.601,21.5575885772705,0,0,0,0,2/8/2015 6:20:37 AM,
99,0,455,4507.69230769231,4077.94871794872,4004.61538461539,4317.4358974359,4543.07692307692,4459.48717948718,4317.94871794872,4444.10256410256,4691.28205128205,4157.94871794872,4167.17948717949,4234.35897435897,4013.33333333333,4191.79487179487,1664,1693,21.609,21.5575885772705,0,0,0,0,2/8/2015 6:20:37 AM,
100,0,408,4508.71794871795,4082.05128205128,4005.12820512821,4308.20512820513,4556.92307692308,4456.92307692308,4317.94871794872,4442.05128205128,4686.15384615385,4153.33333333333,4179.48717948718,4231.79487179487,4016.41025641026,4221.53846153846,1663,1694,21.616,21.5575885772705,0,0,0,0,2/8/2015 6:20:37 AM,
101,0,437,4528.20512820513,4104.61538461538,4003.58974358974,4323.07692307692,4577.94871794872,4464.10256410256,4317.94871794872,4445.64102564103,4678.46153846154,4152.82051282051,4194.35897435897,4230.25641025641,4026.66666666667,4239.48717948718,1664,1693,21.624,21.5575885772705,0,0,0,0,2/8/2015 6:20:37 AM,
102,0,423,4537.4358974359,4105.64102564103,4005.64102564103,4330.76923076923,4567.17948717949,4467.17948717949,4317.94871794872,4442.5641025641,4675.89743589744,4151.79487179487,4185.64102564103,4235.38461538462,4026.15384615385,4228.71794871795,1662,1693,21.631,21.5575885772705,0,0,0,0,2/8/2015 6:20:37 AM,
103,0,455,4536.41025641026,4095.89743589744,4007.17948717949,4323.07692307692,4568.20512820513,4458.97435897436,4317.94871794872,4438.46153846154,4677.4358974359,4149.23076923077,4179.48717948718,4243.07692307692,4026.66666666667,4214.35897435897,1664,1691,21.638,21.5575885772705,0,0,0,0,2/8/2015 6:20:37 AM,
104,0,408,4543.58974358974,4098.97435897436,4015.38461538462,4335.89743589744,4573.33333333333,4460,4317.94871794872,4446.66666666667,4689.23076923077,4154.8717948718,4196.92307692308,4250.25641025641,4042.05128205128,4215.89743589744,1663,1690,21.647,21.5575885772705,0,0,0,0,2/8/2015 6:20:37 AM,
105,0,437,4551.28205128205,4110.25641025641,4031.79487179487,4352.82051282051,4561.53846153846,4474.35897435897,4317.94871794872,4456.92307692308,4699.48717948718,4163.07692307692,4207.69230769231,4262.5641025641,4052.30769230769,4226.15384615385,1663,1692,21.654,21.5575885772705,0,0,0,0,2/8/2015 6:20:37 AM,
106,0,423,4559.48717948718,4117.4358974359,4046.15384615385,4341.53846153846,4569.74358974359,4485.64102564103,4317.94871794872,4461.53846153846,4704.10256410256,4170.76923076923,4200,4284.61538461538,4042.5641025641,4201.02564102564,1664,1690,21.661,21.5575885772705,0,0,0,0,2/8/2015 6:20:37 AM,
107,0,455,4566.15384615385,4121.02564102564,4047.69230769231,4342.5641025641,4600.51282051282,4489.74358974359,4317.94871794872,4465.64102564103,4714.8717948718,4179.48717948718,4202.5641025641,4295.89743589744,4040.51282051282,4192.30769230769,1664,1692,21.67,21.6514186859131,0,0,0,0,2/8/2015 6:20:37 AM,
108,0,408,4566.66666666667,4126.15384615385,4044.10256410256,4369.23076923077,4612.82051282051,4497.94871794872,4317.94871794872,4476.92307692308,4730.76923076923,4189.23076923077,4225.64102564103,4292.30769230769,4066.15384615385,4263.07692307692,1664,1691,21.677,21.6514186859131,0,0,0,0,2/8/2015 6:20:37 AM,
109,0,437,4583.58974358974,4140,4053.84615384615,4374.8717948718,4612.82051282051,4516.41025641026,4317.94871794872,4496.92307692308,4749.74358974359,4202.5641025641,4243.07692307692,4294.35897435897,4091.28205128205,4314.8717948718,1664,1692,21.685,21.6514186859131,0,0,0,0,2/8/2015 6:20:37 AM,
110,0,423,4607.17948717949,4155.38461538462,4070.76923076923,4374.35897435897,4618.97435897436,4532.82051282051,4317.94871794872,4516.92307692308,4763.58974358974,4215.38461538462,4242.5641025641,4313.84615384615,4093.33333333333,4288.20512820513,1665,1691,21.694,21.6514186859131,0,0,0,0,2/8/2015 6:20:37 AM,
111,0,455,4615.38461538462,4170.25641025641,4083.07692307692,4403.58974358974,4627.17948717949,4537.4358974359,4317.94871794872,4523.07692307692,4769.23076923077,4222.5641025641,4254.8717948718,4346.66666666667,4098.97435897436,4268.71794871795,1665,1692,21.7,21.6514186859131,0,0,0,0,2/8/2015 6:20:37 AM,
112,0,408,4645.12820512821,4203.58974358974,4116.92307692308,4436.41025641026,4667.17948717949,4558.97435897436,4317.94871794872,4537.4358974359,4786.66666666667,4247.69230769231,4292.82051282051,4381.53846153846,4141.02564102564,4291.79487179487,1666,1692,21.709,21.6514186859131,0,0,0,0,2/8/2015 6:20:37 AM,
113,0,437,4700.51282051282,4243.07692307692,4164.61538461538,4456.92307692308,4728.20512820513,4604.10256410256,4317.94871794872,4581.02564102564,4821.53846153846,4298.46153846154,4329.74358974359,4406.15384615385,4183.07692307692,4351.28205128205,1667,1693,21.716,21.6514186859131,0,0,0,0,2/8/2015 6:20:37 AM,
114,0,423,4725.64102564103,4258.97435897436,4182.5641025641,4482.05128205128,4737.4358974359,4619.48717948718,4317.94871794872,4610.76923076923,4847.17948717949,4325.12820512821,4343.07692307692,4420.51282051282,4197.4358974359,4423.07692307692,1667,1693,21.725,21.6514186859131,0,0,0,0,2/8/2015 6:20:37 AM,
115,0,455,4722.5641025641,4262.5641025641,4176.41025641026,4496.41025641026,4714.8717948718,4612.82051282051,4317.94871794872,4608.71794871795,4849.23076923077,4325.64102564103,4343.07692307692,4432.82051282051,4212.30769230769,4426.66666666667,1666,1694,21.733,21.6514186859131,0,0,0,0,2/8/2015 6:20:37 AM,
116,0,408,4721.53846153846,4265.64102564103,4173.33333333333,4492.30769230769,4736.92307692308,4628.20512820513,4317.94871794872,4609.74358974359,4844.10256410256,4333.33333333333,4344.61538461538,4428.71794871795,4225.64102564103,4397.4358974359,1665,1693,21.741,21.6514186859131,0,0,0,0,2/8/2015 6:20:37 AM,
117,0,437,4709.23076923077,4268.71794871795,4170.25641025641,4485.12820512821,4764.61538461539,4649.23076923077,4317.94871794872,4622.5641025641,4850.25641025641,4334.8717948718,4338.97435897436,4411.79487179487,4212.30769230769,4401.02564102564,1665,1693,21.748,21.6514186859131,0,0,0,0,2/8/2015 6:20:37 AM,
118,0,423,4690.25641025641,4267.69230769231,4171.28205128205,4478.97435897436,4745.12820512821,4645.12820512821,4317.94871794872,4621.02564102564,4861.02564102564,4325.12820512821,4322.5641025641,4420.51282051282,4191.28205128205,4372.30769230769,1665,1691,21.756,21.6514186859131,0,0,0,0,2/8/2015 6:20:37 AM,
119,0,455,4689.74358974359,4257.4358974359,4175.38461538462,4473.33333333333,4728.20512820513,4635.38461538462,4317.94871794872,4606.15384615385,4854.8717948718,4325.12820512821,4321.53846153846,4433.84615384615,4192.82051282051,4353.33333333333,1664,1692,21.764,21.6514186859131,0,0,0,0,2/8/2015 6:20:37 AM,
120,0,408,4707.17948717949,4249.23076923077,4168.20512820513,4474.35897435897,4736.92307692308,4628.20512820513,4318.97435897436,4603.58974358974,4843.58974358974,4322.5641025641,4336.92307692308,4421.53846153846,4200,4403.07692307692,1664,1691,21.772,21.6514186859131,0,0,0,0,2/8/2015 6:20:37 AM,
121,0,437,4718.46153846154,4259.48717948718,4154.35897435897,4480,4732.82051282051,4616.41025641026,4318.97435897436,4606.15384615385,4847.17948717949,4310.76923076923,4335.38461538462,4408.20512820513,4198.97435897436,4413.33333333333,1663,1691,21.78,21.6514186859131,0,0,0,0,2/8/2015 6:20:37 AM,
122,0,423,4713.33333333333,4271.79487179487,4155.89743589744,4481.02564102564,4721.53846153846,4618.97435897436,4318.46153846154,4598.46153846154,4848.20512820513,4316.41025641026,4323.07692307692,4414.35897435897,4203.58974358974,4372.82051282051,1664,1691,21.787,21.6514186859131,0,0,0,0,2/8/2015 6:20:37 AM,
123,0,455,4710.25641025641,4266.15384615385,4167.17948717949,4473.84615384615,4722.5641025641,4621.02564102564,4318.97435897436,4585.64102564103,4835.38461538462,4322.05128205128,4323.07692307692,4416.92307692308,4203.58974358974,4368.20512820513,1663,1691,21.795,21.7765274047852,0,0,0,0,2/8/2015 6:20:37 AM,
124,0,408,4721.53846153846,4264.10256410256,4166.15384615385,4478.46153846154,4735.38461538462,4609.23076923077,4320,4585.64102564103,4835.38461538462,4321.53846153846,4327.69230769231,4415.38461538462,4193.84615384615,4380,1663,1692,21.803,21.7765274047852,0,0,0,0,2/8/2015 6:20:37 AM,
125,0,437,4722.5641025641,4273.33333333333,4160,4497.4358974359,4749.74358974359,4611.28205128205,4320,4591.79487179487,4842.5641025641,4327.69230769231,4334.35897435897,4415.38461538462,4202.5641025641,4393.84615384615,1663,1692,21.811,21.7765274047852,0,0,0,0,2/8/2015 6:20:37 AM,
126,0,423,4676.41025641026,4252.30769230769,4141.53846153846,4475.38461538462,4721.53846153846,4605.12820512821,4319.48717948718,4567.69230769231,4817.4358974359,4294.8717948718,4316.92307692308,4387.69230769231,4190.25641025641,4370.76923076923,1664,1693,21.819,21.7765274047852,0,0,0,0,2/8/2015 6:20:37 AM,
127,0,455,4610.76923076923,4201.02564102564,4090.76923076923,4413.33333333333,4655.89743589744,4549.74358974359,4320,4509.23076923077,4763.07692307692,4224.10256410256,4267.69230769231,4333.84615384615,4120.51282051282,4276.92307692308,1665,1693,21.827,21.7765274047852,0,0,0,0,2/8/2015 6:20:37 AM,
128,0,408,4572.82051282051,4163.58974358974,4044.10256410256,4381.53846153846,4624.10256410256,4495.89743589744,4320,4462.5641025641,4720,4188.20512820513,4234.35897435897,4295.89743589744,4069.23076923077,4225.12820512821,1664,1693,21.834,21.7765274047852,0,0,0,0,2/8/2015 6:20:37 AM,
0,0,449,4553.33333333333,4142.05128205128,4035.38461538462,4374.8717948718,4608.20512820513,4484.61538461538,4319.48717948718,4453.33333333333,4700.51282051282,4184.61538461538,4209.23076923077,4283.07692307692,4058.46153846154,4230.76923076923,1665,1692,21.842,21.7765274047852,0,0,0,0,2/8/2015 6:20:37 AM,
1,0,441,4546.15384615385,4126.66666666667,4025.64102564103,4365.64102564103,4578.46153846154,4480,4319.48717948718,4455.89743589744,4694.8717948718,4167.69230769231,4182.05128205128,4269.23076923077,4045.12820512821,4214.35897435897,1664,1692,21.85,21.7765274047852,0,0,0,0,2/8/2015 6:20:37 AM,
2,0,465,4553.84615384615,4136.92307692308,4009.23076923077,4369.23076923077,4582.05128205128,4471.28205128205,4319.48717948718,4454.8717948718,4702.5641025641,4156.41025641026,4196.92307692308,4254.8717948718,4050.25641025641,4230.76923076923,1665,1691,21.858,21.8390808105469,0,0,0,0,2/8/2015 6:20:38 AM,
3,0,491,4548.71794871795,4144.61538461538,4027.17948717949,4373.84615384615,4609.23076923077,4473.33333333333,4319.48717948718,4456.41025641026,4706.15384615385,4164.61538461538,4222.05128205128,4261.53846153846,4060,4264.61538461538,1664,1690,21.866,21.8390808105469,0,0,0,0,2/8/2015 6:20:38 AM,
4,0,478,4534.8717948718,4130.25641025641,4042.05128205128,4372.82051282051,4613.33333333333,4478.46153846154,4319.48717948718,4456.41025641026,4703.07692307692,4166.66666666667,4209.23076923077,4271.79487179487,4043.07692307692,4230.25641025641,1664,1691,21.873,21.8390808105469,0,0,0,0,2/8/2015 6:20:38 AM,
5,0,463,4548.20512820513,4141.53846153846,4023.07692307692,4379.48717948718,4615.89743589744,4475.89743589744,4319.48717948718,4449.74358974359,4701.02564102564,4166.66666666667,4208.71794871795,4267.17948717949,4046.66666666667,4206.66666666667,1663,1691,21.881,21.8390808105469,0,0,0,0,2/8/2015 6:20:38 AM,
6,0,481,4564.61538461538,4163.07692307692,4015.89743589744,4377.94871794872,4613.84615384615,4463.58974358974,4319.48717948718,4437.4358974359,4695.38461538462,4171.79487179487,4227.69230769231,4263.58974358974,4066.15384615385,4241.53846153846,1663,1693,21.889,21.8390808105469,0,0,0,0,2/8/2015 6:20:38 AM,
7,0,0,4548.71794871795,4144.10256410256,4029.23076923077,4369.74358974359,4582.05128205128,4451.79487179487,4320,4427.17948717949,4686.15384615385,4166.66666666667,4211.79487179487,4266.15384615385,4054.8717948718,4238.46153846154,1663,1693,21.897,21.8390808105469,0,0,0,0,2/8/2015 6:20:38 AM,
8,0,411,4534.8717948718,4125.12820512821,4027.17948717949,4377.94871794872,4578.46153846154,4455.89743589744,4320,4425.64102564103,4684.61538461539,4155.38461538462,4193.84615384615,4265.64102564103,4045.12820512821,4215.38461538462,1663,1694,21.905,21.8390808105469,0,0,0,0,2/8/2015 6:20:38 AM,
9,0,425,4541.02564102564,4138.46153846154,4014.8717948718,4381.02564102564,4611.79487179487,4467.17948717949,4319.48717948718,4431.28205128205,4691.79487179487,4153.33333333333,4208.71794871795,4262.5641025641,4053.84615384615,4228.20512820513,1663,1694,21.913,21.8390808105469,0,0,0,0,2/8/2015 6:20:38 AM,
10,0,423,4531.28205128205,4144.61538461538,4019.48717948718,4370.76923076923,4615.38461538462,4459.48717948718,4319.48717948718,4433.84615384615,4695.89743589744,4154.8717948718,4220,4260.51282051282,4048.71794871795,4229.74358974359,1662,1693,21.92,21.9016342163086,0,0,0,0,2/8/2015 6:20:38 AM,
11,0,455,4509.23076923077,4129.74358974359,4023.58974358974,4366.15384615385,4585.12820512821,4445.12820512821,4320.51282051282,4429.74358974359,4685.64102564103,4152.30769230769,4211.79487179487,4258.46153846154,4035.89743589744,4196.41025641026,1662,1691,21.928,21.9016342163086,0,0,0,0,2/8/2015 6:20:38 AM,
12,0,408,4529.23076923077,4129.23076923077,4012.30769230769,4366.15384615385,4565.64102564103,4448.71794871795,4318.97435897436,4430.25641025641,4677.4358974359,4150.25641025641,4201.53846153846,4252.82051282051,4035.38461538462,4196.41025641026,1662,1691,21.936,21.9016342163086,0,0,0,0,2/8/2015 6:20:38 AM,
13,0,437,4561.02564102564,4138.97435897436,4000.51282051282,4372.30769230769,4572.30769230769,4462.05128205128,4316.41025641026,4438.46153846154,4684.10256410256,4155.89743589744,4197.94871794872,4249.23076923077,4035.89743589744,4235.38461538462,1662,1690,21.944,21.9016342163086,0,0,0,0,2/8/2015 6:20:38 AM,
14,0,423,4542.5641025641,4140,4007.69230769231,4381.02564102564,4592.30769230769,4465.64102564103,4317.4358974359,4445.12820512821,4690.25641025641,4157.4358974359,4207.69230769231,4258.46153846154,4036.41025641026,4232.30769230769,1661,1690,21.952,21.9016342163086,0,0,0,0,2/8/2015 6:20:38 AM,
15,0,455,4528.20512820513,4144.10256410256,4024.10256410256,4383.07692307692,4600.51282051282,4460,4319.48717948718,4444.61538461538,4688.20512820513,4149.74358974359,4220.51282051282,4265.12820512821,4041.53846153846,4209.74358974359,1662,1689,21.96,21.9016342163086,0,0,0,0,2/8/2015 6:20:38 AM,
16,0,0,4556.92307692308,4149.23076923077,4009.23076923077,4373.33333333333,4587.17948717949,4451.28205128205,4318.46153846154,4439.48717948718,4686.15384615385,4141.02564102564,4210.25641025641,4248.71794871795,4038.46153846154,4225.64102564103,1661,1689,21.968,21.9016342163086,0,0,0,0,2/8/2015 6:20:38 AM,
17,0,0,4564.61538461538,4145.12820512821,3981.53846153846,4366.15384615385,4582.5641025641,4444.10256410256,4317.4358974359,4431.79487179487,4680.51282051282,4137.94871794872,4200.51282051282,4236.92307692308,4030.76923076923,4223.58974358974,1661,1692,21.976,21.9016342163086,0,0,0,0,2/8/2015 6:20:38 AM,
18,0,0,4531.79487179487,4138.46153846154,3995.89743589744,4371.79487179487,4584.61538461538,4445.12820512821,4317.94871794872,4430.25641025641,4671.28205128205,4134.8717948718,4212.82051282051,4257.4358974359,4025.64102564103,4188.71794871795,1662,1692,21.984,21.9016342163086,0,0,0,0,2/8/2015 6:20:38 AM,
19,0,0,4520.51282051282,4133.33333333333,4022.05128205128,4378.97435897436,4573.84615384615,4449.74358974359,4318.46153846154,4432.82051282051,4669.23076923077,4138.46153846154,4220.51282051282,4268.20512820513,4022.5641025641,4195.38461538462,1662,1694,21.991,21.9016342163086,0,0,0,0,2/8/2015 6:20:38 AM,
20,0,0,4533.84615384615,4138.46153846154,4010.76923076923,4388.20512820513,4577.4358974359,4454.35897435897,4317.94871794872,4432.82051282051,4673.84615384615,4153.33333333333,4211.79487179487,4252.82051282051,4028.71794871795,4209.23076923077,1662,1695,21.999,21.9016342163086,0,0,0,0,2/8/2015 6:20:38 AM,
21,0,0,4529.74358974359,4152.30769230769,3999.48717948718,4387.17948717949,4596.41025641026,4464.10256410256,4317.94871794872,4430.25641025641,4673.84615384615,4155.89743589744,4218.97435897436,4251.79487179487,4044.61538461539,4190.76923076923,1661,1695,22.006,21.9016342163086,0,0,0,0,2/8/2015 6:20:38 AM,
22,0,0,4524.10256410256,4143.07692307692,4015.38461538462,4378.97435897436,4591.79487179487,4473.84615384615,4317.94871794872,4426.66666666667,4669.74358974359,4143.58974358974,4235.89743589744,4268.20512820513,4047.69230769231,4213.84615384615,1663,1695,22.014,21.9954643249512,0,0,0,0,2/8/2015 6:20:38 AM,
23,0,0,4533.33333333333,4123.58974358974,4026.66666666667,4382.5641025641,4575.38461538462,4475.89743589744,4317.94871794872,4425.64102564103,4675.38461538462,4141.53846153846,4226.15384615385,4269.74358974359,4036.41025641026,4260.51282051282,1662,1694,22.022,21.9954643249512,0,0,0,0,2/8/2015 6:20:38 AM,
24,0,0,4541.02564102564,4129.74358974359,4023.58974358974,4394.8717948718,4586.15384615385,4466.66666666667,4317.94871794872,4429.23076923077,4687.17948717949,4154.8717948718,4210.76923076923,4262.05128205128,4037.94871794872,4238.46153846154,1663,1693,22.03,21.9954643249512,0,0,0,0,2/8/2015 6:20:38 AM,
25,0,0,4534.8717948718,4145.12820512821,4012.82051282051,4399.48717948718,4602.5641025641,4455.89743589744,4317.94871794872,4431.79487179487,4682.5641025641,4166.15384615385,4218.46153846154,4258.46153846154,4043.07692307692,4192.82051282051,1663,1692,22.038,21.9954643249512,0,0,0,0,2/8/2015 6:20:38 AM,
26,0,0,4530.25641025641,4141.53846153846,4003.07692307692,4390.25641025641,4608.71794871795,4463.07692307692,4317.94871794872,4428.71794871795,4665.64102564103,4158.46153846154,4225.64102564103,4252.30769230769,4044.61538461539,4207.69230769231,1664,1692,22.045,22.026741027832,0,0,0,0,2/8/2015 6:20:38 AM,
27,0,0,4521.53846153846,4128.20512820513,4007.17948717949,4377.94871794872,4605.64102564103,4472.30769230769,4317.94871794872,4426.66666666667,4666.15384615385,4142.05128205128,4217.4358974359,4247.69230769231,4038.97435897436,4232.30769230769,1665,1691,22.053,22.026741027832,0,0,0,0,2/8/2015 6:20:38 AM,
28,0,0,4507.17948717949,4116.41025641026,4012.30769230769,4373.33333333333,4588.20512820513,4462.5641025641,4317.94871794872,4427.17948717949,4676.92307692308,4134.35897435897,4210.25641025641,4250.76923076923,4021.53846153846,4208.20512820513,1664,1693,22.06,22.026741027832,0,0,0,0,2/8/2015 6:20:38 AM,
29,0,0,4508.20512820513,4120.51282051282,4004.10256410256,4387.69230769231,4585.12820512821,4453.33333333333,4317.94871794872,4420.51282051282,4673.33333333333,4131.28205128205,4218.97435897436,4251.28205128205,4021.02564102564,4191.79487179487,1665,1692,22.069,22.026741027832,0,0,0,0,2/8/2015 6:20:38 AM,
30,0,0,4510.76923076923,4136.41025641026,4000.51282051282,4400.51282051282,4599.48717948718,4459.48717948718,4317.94871794872,4417.94871794872,4671.79487179487,4139.48717948718,4230.76923076923,4250.25641025641,4043.07692307692,4217.4358974359,1664,1694,22.077,22.0580196380615,0,0,0,0,2/8/2015 6:20:38 AM,
31,0,0,4505.12820512821,4135.38461538462,4009.74358974359,4390.25641025641,4592.30769230769,4465.64102564103,4317.94871794872,4427.17948717949,4678.46153846154,4151.79487179487,4223.58974358974,4250.25641025641,4044.61538461539,4232.82051282051,1665,1694,22.085,22.0580196380615,0,0,0,0,2/8/2015 6:20:38 AM,
32,0,0,4504.61538461538,4121.02564102564,4015.89743589744,4377.4358974359,4581.53846153846,4462.5641025641,4317.94871794872,4431.79487179487,4678.97435897436,4144.61538461538,4209.74358974359,4251.28205128205,4018.97435897436,4229.74358974359,1664,1693,22.092,22.0580196380615,0,0,0,0,2/8/2015 6:20:38 AM,
33,0,0,4512.82051282051,4121.53846153846,4013.33333333333,4381.02564102564,4589.74358974359,4457.4358974359,4317.94871794872,4425.64102564103,4672.30769230769,4137.4358974359,4218.97435897436,4249.23076923077,4018.97435897436,4251.79487179487,1664,1693,22.099,22.0580196380615,0,0,0,0,2/8/2015 6:20:38 AM,
34,0,0,4525.64102564103,4137.4358974359,4007.17948717949,4397.94871794872,4597.94871794872,4459.48717948718,4317.94871794872,4423.07692307692,4667.17948717949,4153.84615384615,4237.94871794872,4246.15384615385,4040,4249.23076923077,1664,1692,22.109,22.0580196380615,0,0,0,0,2/8/2015 6:20:38 AM,
35,0,0,4527.17948717949,4144.10256410256,4000.51282051282,4401.02564102564,4608.20512820513,4466.15384615385,4317.94871794872,4425.64102564103,4663.58974358974,4155.89743589744,4238.97435897436,4251.28205128205,4037.94871794872,4187.17948717949,1664,1692,22.117,22.0580196380615,0,0,0,0,2/8/2015 6:20:38 AM,
36,0,0,4507.69230769231,4133.84615384615,4005.64102564103,4383.07692307692,4607.69230769231,4457.4358974359,4317.94871794872,4426.15384615385,4665.64102564103,4136.41025641026,4225.64102564103,4253.33333333333,4026.66666666667,4190.25641025641,1664,1691,22.125,22.0580196380615,0,0,0,0,2/8/2015 6:20:38 AM,
37,0,0,4500.51282051282,4127.69230769231,4017.94871794872,4379.48717948718,4583.07692307692,4443.07692307692,4317.94871794872,4427.17948717949,4673.84615384615,4138.97435897436,4220.51282051282,4245.12820512821,4029.74358974359,4276.92307692308,1665,1692,22.132,22.0580196380615,0,0,0,0,2/8/2015 6:20:38 AM,
38,0,0,4521.53846153846,4134.35897435897,4013.84615384615,4389.74358974359,4588.20512820513,4445.64102564103,4317.94871794872,4427.69230769231,4671.79487179487,4153.84615384615,4235.38461538462,4242.5641025641,4039.48717948718,4294.8717948718,1664,1692,22.139,22.0580196380615,0,0,0,0,2/8/2015 6:20:38 AM,
39,0,0,4529.23076923077,4134.8717948718,4000.51282051282,4385.64102564103,4610.25641025641,4451.79487179487,4317.94871794872,4427.17948717949,4663.58974358974,4150.76923076923,4244.10256410256,4246.66666666667,4039.48717948718,4230.76923076923,1665,1691,22.147,22.0580196380615,0,0,0,0,2/8/2015 6:20:38 AM,
40,0,0,4513.84615384615,4132.30769230769,4002.05128205128,4382.5641025641,4595.89743589744,4451.79487179487,4317.94871794872,4428.71794871795,4669.74358974359,4140.51282051282,4221.53846153846,4247.69230769231,4026.66666666667,4208.20512820513,1665,1691,22.155,22.0580196380615,0,0,0,0,2/8/2015 6:20:38 AM,
41,0,0,4496.92307692308,4135.38461538462,4006.66666666667,4392.82051282051,4583.07692307692,4461.53846153846,4317.94871794872,4429.74358974359,4677.94871794872,4135.38461538462,4209.74358974359,4247.17948717949,4016.41025641026,4224.10256410256,1665,1690,22.163,22.0580196380615,0,0,0,0,2/8/2015 6:20:38 AM,
42,0,0,4490.25641025641,4129.74358974359,4002.5641025641,4391.79487179487,4584.61538461538,4462.5641025641,4317.94871794872,4426.66666666667,4669.23076923077,4134.8717948718,4237.94871794872,4246.66666666667,4024.10256410256,4230.76923076923,1665,1690,22.172,22.1518497467041,0,0,0,0,2/8/2015 6:20:38 AM,
43,0,0,4502.5641025641,4125.12820512821,4004.61538461539,4386.15384615385,4579.48717948718,4449.23076923077,4317.94871794872,4425.12820512821,4663.07692307692,4141.53846153846,4256.92307692308,4245.12820512821,4042.5641025641,4252.82051282051,1665,1690,22.179,22.1518497467041,0,0,0,0,2/8/2015 6:20:38 AM,
44,0,0,4523.07692307692,4137.4358974359,4005.12820512821,4396.41025641026,4592.82051282051,4450.76923076923,4317.94871794872,4428.71794871795,4676.92307692308,4154.8717948718,4237.4358974359,4247.69230769231,4045.12820512821,4260,1664,1690,22.187,22.1518497467041,0,0,0,0,2/8/2015 6:20:38 AM,
45,0,0,4518.46153846154,4147.17948717949,3997.4358974359,4398.97435897436,4604.10256410256,4462.05128205128,4317.94871794872,4428.20512820513,4682.05128205128,4154.8717948718,4228.71794871795,4247.17948717949,4036.41025641026,4242.5641025641,1665,1691,22.195,22.1518497467041,0,0,0,0,2/8/2015 6:20:38 AM,
46,0,0,4502.5641025641,4141.53846153846,4006.66666666667,4394.35897435897,4597.4358974359,4458.46153846154,4317.94871794872,4425.64102564103,4672.82051282051,4141.53846153846,4246.15384615385,4246.66666666667,4033.33333333333,4235.89743589744,1665,1691,22.202,22.1518497467041,0,0,0,0,2/8/2015 6:20:38 AM,
47,0,0,4505.64102564103,4138.97435897436,4021.02564102564,4405.12820512821,4612.30769230769,4449.23076923077,4317.94871794872,4427.69230769231,4669.74358974359,4132.82051282051,4251.79487179487,4253.33333333333,4033.33333333333,4225.12820512821,1664,1692,22.21,22.1518497467041,0,0,0,0,2/8/2015 6:20:38 AM,
48,0,0,4512.30769230769,4141.02564102564,4015.38461538462,4413.33333333333,4619.48717948718,4445.64102564103,4317.94871794872,4428.71794871795,4671.28205128205,4134.8717948718,4242.5641025641,4254.35897435897,4042.05128205128,4224.10256410256,1665,1691,22.218,22.1518497467041,0,0,0,0,2/8/2015 6:20:38 AM,
49,0,0,4507.17948717949,4138.46153846154,4004.61538461539,4404.61538461538,4588.71794871795,4450.76923076923,4317.94871794872,4422.05128205128,4666.15384615385,4144.61538461538,4244.61538461538,4246.66666666667,4053.84615384615,4253.84615384615,1664,1693,22.225,22.1518497467041,0,0,0,0,2/8/2015 6:20:38 AM,
50,0,0,4502.5641025641,4131.79487179487,4002.5641025641,4396.41025641026,4579.48717948718,4462.05128205128,4317.94871794872,4416.92307692308,4660,4156.41025641026,4250.25641025641,4246.15384615385,4044.61538461539,4255.38461538462,1665,1692,22.234,22.1518497467041,0,0,0,0,2/8/2015 6:20:38 AM,
51,0,0,4506.15384615385,4130.25641025641,4002.05128205128,4396.92307692308,4589.74358974359,4463.58974358974,4317.94871794872,4417.94871794872,4666.15384615385,4152.82051282051,4247.17948717949,4248.71794871795,4027.17948717949,4218.97435897436,1664,1692,22.242,22.1518497467041,0,0,0,0,2/8/2015 6:20:38 AM,
52,0,0,4502.5641025641,4135.89743589744,4006.66666666667,4395.89743589744,4588.20512820513,4456.92307692308,4317.94871794872,4419.48717948718,4678.97435897436,4144.61538461538,4243.07692307692,4247.69230769231,4034.8717948718,4209.74358974359,1664,1691,22.25,22.1518497467041,0,0,0,0,2/8/2015 6:20:38 AM,
53,0,0,4494.35897435897,4132.82051282051,4016.92307692308,4392.30769230769,4603.58974358974,4458.46153846154,4317.94871794872,4416.92307692308,4678.97435897436,4150.76923076923,4245.12820512821,4250.25641025641,4046.66666666667,4225.12820512821,1664,1691,22.257,22.1518497467041,0,0,0,0,2/8/2015 6:20:38 AM,
54,0,0,4497.94871794872,4127.17948717949,4014.35897435898,4397.94871794872,4620,4451.28205128205,4317.94871794872,4410.25641025641,4666.15384615385,4154.8717948718,4252.30769230769,4252.30769230769,4046.66666666667,4245.12820512821,1665,1692,22.264,22.1518497467041,0,0,0,0,2/8/2015 6:20:38 AM,
55,0,0,4504.10256410256,4136.41025641026,4002.05128205128,4408.71794871795,4594.35897435897,4435.38461538462,4317.94871794872,4404.61538461538,4662.05128205128,4150.25641025641,4254.8717948718,4244.61538461538,4046.66666666667,4277.4358974359,1664,1693,22.272,22.1518497467041,0,0,0,0,2/8/2015 6:20:38 AM,
56,0,0,4505.64102564103,4140.51282051282,4001.02564102564,4411.28205128205,4566.66666666667,4433.84615384615,4317.94871794872,4403.58974358974,4666.15384615385,4149.23076923077,4247.17948717949,4243.07692307692,4040,4261.53846153846,1665,1693,22.28,22.1518497467041,0,0,0,0,2/8/2015 6:20:38 AM,
57,0,0,4502.5641025641,4130.25641025641,4007.69230769231,4410.76923076923,4581.02564102564,4442.05128205128,4317.94871794872,4404.10256410256,4656.92307692308,4142.05128205128,4244.10256410256,4251.79487179487,4031.28205128205,4216.92307692308,1664,1691,22.288,22.1518497467041,0,0,0,0,2/8/2015 6:20:38 AM,
58,0,0,4497.94871794872,4131.28205128205,4006.15384615385,4413.33333333333,4604.61538461538,4449.23076923077,4317.94871794872,4406.66666666667,4652.30769230769,4136.41025641026,4257.94871794872,4243.07692307692,4043.07692307692,4241.53846153846,1663,1694,22.296,22.2769565582275,0,0,0,0,2/8/2015 6:20:38 AM,
59,0,0,4488.71794871795,4138.97435897436,4005.12820512821,4405.12820512821,4606.66666666667,4453.33333333333,4317.94871794872,4418.97435897436,4667.69230769231,4153.33333333333,4262.5641025641,4227.17948717949,4056.41025641026,4286.66666666667,1664,1694,22.304,22.2769565582275,0,0,0,0,2/8/2015 6:20:38 AM,
60,0,0,4489.74358974359,4132.30769230769,4014.35897435898,4402.05128205128,4596.41025641026,4452.82051282051,4317.94871794872,4431.28205128205,4677.4358974359,4159.48717948718,4255.38461538462,4238.97435897436,4044.61538461539,4250.25641025641,1663,1694,22.311,22.2769565582275,0,0,0,0,2/8/2015 6:20:38 AM,
61,0,0,4503.58974358974,4124.61538461538,4013.33333333333,4412.82051282051,4589.74358974359,4449.23076923077,4317.94871794872,4424.10256410256,4666.66666666667,4140.51282051282,4262.05128205128,4253.84615384615,4031.28205128205,4207.17948717949,1664,1694,22.319,22.2769565582275,0,0,0,0,2/8/2015 6:20:38 AM,
62,0,0,4509.74358974359,4125.64102564103,4000,4404.61538461538,4574.35897435897,4445.64102564103,4317.94871794872,4408.20512820513,4661.53846153846,4139.48717948718,4261.53846153846,4243.07692307692,4033.33333333333,4224.10256410256,1663,1693,22.327,22.2769565582275,0,0,0,0,2/8/2015 6:20:38 AM,
63,0,0,4510.76923076923,4122.5641025641,4001.53846153846,4394.35897435897,4565.64102564103,4441.53846153846,4317.94871794872,4405.64102564103,4663.58974358974,4153.84615384615,4243.07692307692,4239.48717948718,4040.51282051282,4246.15384615385,1663,1694,22.335,22.2769565582275,0,0,0,0,2/8/2015 6:20:38 AM,
64,0,449,4507.69230769231,4123.07692307692,4016.92307692308,4411.28205128205,4600,4441.02564102564,4317.94871794872,4412.82051282051,4665.64102564103,4155.38461538462,4249.23076923077,4251.79487179487,4048.71794871795,4252.30769230769,1664,1692,22.343,22.2769565582275,0,0,0,0,2/8/2015 6:20:38 AM,
65,0,441,4505.12820512821,4132.30769230769,4017.94871794872,4419.48717948718,4633.33333333333,4450.25641025641,4317.94871794872,4416.41025641026,4676.92307692308,4153.84615384615,4273.84615384615,4250.76923076923,4052.30769230769,4251.79487179487,1663,1694,22.349,22.2769565582275,0,0,0,0,2/8/2015 6:20:38 AM,
66,0,467,4520.51282051282,4140.51282051282,4008.71794871795,4407.69230769231,4618.46153846154,4457.4358974359,4317.94871794872,4413.84615384615,4680,4156.92307692308,4276.41025641026,4247.69230769231,4049.74358974359,4255.38461538462,1664,1693,22.358,22.2769565582275,0,0,0,0,2/8/2015 6:20:38 AM,
67,0,491,4536.92307692308,4148.71794871795,4012.30769230769,4417.94871794872,4594.8717948718,4458.97435897436,4317.94871794872,4411.28205128205,4672.82051282051,4158.46153846154,4276.41025641026,4254.8717948718,4058.46153846154,4276.41025641026,1664,1694,22.366,22.2769565582275,0,0,0,0,2/8/2015 6:20:38 AM,
68,0,478,4528.71794871795,4157.94871794872,4016.92307692308,4434.8717948718,4602.5641025641,4459.48717948718,4317.94871794872,4411.79487179487,4678.97435897436,4165.64102564103,4281.02564102564,4254.8717948718,4070.76923076923,4281.53846153846,1664,1692,22.374,22.2769565582275,0,0,0,0,2/8/2015 6:20:38 AM,
69,0,463,4516.41025641026,4157.94871794872,4008.20512820513,4423.07692307692,4606.15384615385,4456.92307692308,4317.94871794872,4412.82051282051,4689.23076923077,4171.79487179487,4280,4246.66666666667,4063.58974358974,4262.05128205128,1663,1695,22.382,22.2769565582275,0,0,0,0,2/8/2015 6:20:38 AM,
70,0,481,4518.97435897436,4146.15384615385,4008.20512820513,4407.17948717949,4586.15384615385,4455.38461538462,4317.94871794872,4408.71794871795,4685.64102564103,4162.05128205128,4288.71794871795,4245.12820512821,4056.92307692308,4258.97435897436,1665,1694,22.39,22.2769565582275,0,0,0,0,2/8/2015 6:20:38 AM,
71,0,0,4521.02564102564,4141.53846153846,4024.61538461539,4413.84615384615,4584.10256410256,4455.89743589744,4317.94871794872,4411.28205128205,4687.17948717949,4151.28205128205,4290.76923076923,4255.38461538462,4064.10256410256,4242.05128205128,1663,1695,22.396,22.2769565582275,0,0,0,0,2/8/2015 6:20:38 AM,
72,0,411,4526.66666666667,4152.30769230769,4026.15384615385,4423.07692307692,4614.8717948718,4458.97435897436,4317.94871794872,4423.07692307692,4694.35897435897,4148.71794871795,4278.97435897436,4267.69230769231,4060,4213.84615384615,1664,1694,22.405,22.2769565582275,0,0,0,0,2/8/2015 6:20:38 AM,
73,0,425,4536.92307692308,4160.51282051282,4013.84615384615,4416.92307692308,4618.97435897436,4459.48717948718,4317.94871794872,4424.10256410256,4690.76923076923,4150.25641025641,4282.5641025641,4267.17948717949,4055.38461538462,4231.79487179487,1663,1692,22.414,22.2769565582275,0,0,0,0,2/8/2015 6:20:38 AM,
74,0,423,4540.51282051282,4152.30769230769,4011.28205128205,4412.30769230769,4589.23076923077,4457.4358974359,4317.94871794872,4417.94871794872,4687.17948717949,4152.82051282051,4288.71794871795,4260.51282051282,4060,4226.15384615385,1663,1692,22.422,22.4020652770996,0,0,0,0,2/8/2015 6:20:38 AM,
75,0,455,4534.8717948718,4144.10256410256,4011.28205128205,4412.82051282051,4594.35897435897,4457.4358974359,4317.94871794872,4416.92307692308,4687.69230769231,4152.82051282051,4274.8717948718,4261.53846153846,4050.25641025641,4195.38461538462,1663,1691,22.429,22.4020652770996,0,0,0,0,2/8/2015 6:20:38 AM,
76,0,408,4528.71794871795,4146.66666666667,4012.30769230769,4414.35897435897,4610.76923076923,4455.38461538462,4317.94871794872,4420.51282051282,4686.66666666667,4156.41025641026,4274.8717948718,4260.51282051282,4049.74358974359,4237.94871794872,1662,1691,22.436,22.4020652770996,0,0,0,0,2/8/2015 6:20:38 AM,
77,0,437,4536.41025641026,4157.4358974359,4023.07692307692,4429.74358974359,4593.33333333333,4456.41025641026,4317.94871794872,4424.10256410256,4694.35897435897,4165.64102564103,4296.92307692308,4262.05128205128,4070.76923076923,4296.92307692308,1663,1690,22.444,22.4020652770996,0,0,0,0,2/8/2015 6:20:38 AM,
78,0,423,4551.28205128205,4167.17948717949,4031.79487179487,4449.23076923077,4587.17948717949,4465.64102564103,4317.94871794872,4429.23076923077,4702.5641025641,4174.35897435897,4305.64102564103,4272.30769230769,4076.41025641026,4297.4358974359,1662,1690,22.451,22.4020652770996,0,0,0,0,2/8/2015 6:20:38 AM,
79,0,455,4556.41025641026,4171.28205128205,4035.38461538462,4445.64102564103,4613.84615384615,4476.92307692308,4317.94871794872,4431.28205128205,4703.07692307692,4182.05128205128,4312.30769230769,4273.33333333333,4081.53846153846,4276.92307692308,1663,1690,22.46,22.4020652770996,0,0,0,0,2/8/2015 6:20:38 AM,
80,0,408,4569.23076923077,4176.41025641026,4046.66666666667,4438.46153846154,4634.8717948718,4475.38461538462,4317.94871794872,4430.76923076923,4701.53846153846,4192.30769230769,4316.92307692308,4280.51282051282,4091.28205128205,4252.82051282051,1662,1691,22.469,22.4020652770996,0,0,0,0,2/8/2015 6:20:38 AM,
81,0,437,4595.38461538462,4189.23076923077,4056.41025641026,4457.94871794872,4655.89743589744,4472.82051282051,4317.94871794872,4435.89743589744,4702.05128205128,4198.97435897436,4308.20512820513,4298.46153846154,4084.10256410256,4264.10256410256,1663,1691,22.477,22.4020652770996,0,0,0,0,2/8/2015 6:20:38 AM,
82,0,423,4597.94871794872,4198.97435897436,4046.66666666667,4474.35897435897,4671.79487179487,4484.10256410256,4317.94871794872,4442.05128205128,4708.20512820513,4207.69230769231,4315.89743589744,4289.74358974359,4087.69230769231,4329.74358974359,1662,1692,22.484,22.4020652770996,0,0,0,0,2/8/2015 6:20:38 AM,
