COUNTER,INTERPOLATED,RAW_CQ,AF3,F7,F3, FC5, T7, P7, O1, O2,P8, T8, FC6, F4,F8, AF4,GYROX, GYROY, TIMESTAMP, ES_TIMESTAMPFUNC_ID, FUNC_VALUE, MARKER, SYNC_SIGNAL,DateTime
116,0,410,4525.12820512821,3957.4358974359,4054.8717948718,4105.64102564103,4521.02564102564,4427.17948717949,4320,4464.10256410256,4634.35897435897,4114.35897435897,4203.58974358974,4254.8717948718,3985.12820512821,4277.94871794872,1667,1694,65.388,65.3295822143555,0,0,0,0,2/8/2015 6:19:50 AM,
117,0,436,4546.15384615385,3960,4054.35897435898,4098.46153846154,4522.05128205128,4425.12820512821,4320,4480,4686.66666666667,4120,4214.35897435897,4249.23076923077,3993.84615384615,4304.61538461538,1668,1692,65.396,65.3295822143555,0,0,0,0,2/8/2015 6:19:50 AM,
118,0,430,4540.51282051282,3946.66666666667,4051.79487179487,4069.23076923077,4492.82051282051,4439.48717948718,4320,4488.71794871795,4687.69230769231,4123.07692307692,4215.38461538462,4248.71794871795,3990.76923076923,4287.69230769231,1666,1693,65.403,65.3295822143555,0,0,0,0,2/8/2015 6:19:50 AM,
119,0,453,4516.92307692308,3929.23076923077,4047.17948717949,4043.07692307692,4489.74358974359,4451.79487179487,4320,4487.69230769231,4673.84615384615,4115.89743589744,4213.84615384615,4247.69230769231,3987.69230769231,4262.5641025641,1666,1692,65.413,65.3295822143555,0,0,0,0,2/8/2015 6:19:50 AM,
120,0,410,4500.51282051282,3921.53846153846,4033.33333333333,4031.28205128205,4509.74358974359,4442.5641025641,4320,4477.94871794872,4683.58974358974,4103.58974358974,4201.02564102564,4228.71794871795,3987.17948717949,4282.05128205128,1665,1693,65.421,65.3295822143555,0,0,0,0,2/8/2015 6:19:50 AM,
121,0,436,4494.8717948718,3911.28205128205,4034.8717948718,4038.97435897436,4487.69230769231,4413.84615384615,4320,4474.35897435897,4675.38461538462,4101.02564102564,4182.5641025641,4231.79487179487,3986.66666666667,4262.5641025641,1665,1694,65.428,65.3295822143555,0,0,0,0,2/8/2015 6:19:50 AM,
122,0,430,4485.12820512821,3897.4358974359,4038.97435897436,4042.05128205128,4467.17948717949,4396.92307692308,4319.48717948718,4474.8717948718,4633.84615384615,4106.66666666667,4188.20512820513,4254.8717948718,3985.64102564103,4211.79487179487,1665,1692,65.436,65.3295822143555,0,0,0,0,2/8/2015 6:19:50 AM,
123,0,453,4476.92307692308,3892.30769230769,4025.12820512821,4017.94871794872,4495.89743589744,4433.84615384615,4318.46153846154,4473.84615384615,4614.35897435897,4105.12820512821,4203.07692307692,4246.15384615385,3992.82051282051,4236.92307692308,1665,1693,65.444,65.3295822143555,0,0,0,0,2/8/2015 6:19:50 AM,
124,0,410,4472.30769230769,3893.33333333333,4020.51282051282,4009.74358974359,4517.94871794872,4487.17948717949,4317.94871794872,4489.23076923077,4667.69230769231,4117.94871794872,4206.15384615385,4220.51282051282,4018.46153846154,4291.79487179487,1665,1693,65.452,65.3295822143555,0,0,0,0,2/8/2015 6:19:50 AM,
125,0,436,4476.92307692308,3896.92307692308,4023.58974358974,4032.30769230769,4504.61538461538,4456.92307692308,4317.94871794872,4510.25641025641,4708.71794871795,4142.5641025641,4223.58974358974,4226.66666666667,4040,4259.48717948718,1665,1695,65.465,65.3295822143555,0,0,0,0,2/8/2015 6:19:50 AM,
126,0,430,4474.8717948718,3889.74358974359,4007.17948717949,4033.84615384615,4486.15384615385,4391.79487179487,4317.94871794872,4505.12820512821,4684.61538461539,4137.94871794872,4237.4358974359,4249.23076923077,4035.38461538462,4203.58974358974,1664,1694,65.466,65.3295822143555,0,0,0,0,2/8/2015 6:19:50 AM,
127,0,453,4437.4358974359,3869.74358974359,3987.69230769231,4006.15384615385,4480,4403.07692307692,4317.94871794872,4490.25641025641,4673.84615384615,4135.89743589744,4224.10256410256,4231.28205128205,4042.5641025641,4241.02564102564,1664,1695,65.474,65.3295822143555,0,0,0,0,2/8/2015 6:19:50 AM,
128,0,410,4378.97435897436,3852.30769230769,4000.51282051282,3977.94871794872,4473.84615384615,4455.38461538462,4317.94871794872,4491.28205128205,4688.20512820513,4156.41025641026,4216.92307692308,4213.33333333333,4063.58974358974,4275.38461538462,1664,1693,65.482,65.4546890258789,0,0,0,0,2/8/2015 6:19:50 AM,
0,0,455,4365.64102564103,3832.82051282051,4009.23076923077,3969.23076923077,4475.89743589744,4466.66666666667,4317.94871794872,4500,4685.12820512821,4148.20512820513,4228.71794871795,4229.23076923077,4062.5641025641,4227.17948717949,1664,1694,65.49,65.4546890258789,0,0,0,0,2/8/2015 6:19:50 AM,
1,0,442,4393.33333333333,3826.15384615385,3981.53846153846,3982.5641025641,4492.82051282051,4449.74358974359,4317.94871794872,4505.12820512821,4676.92307692308,4128.71794871795,4226.15384615385,4223.58974358974,4052.82051282051,4190.25641025641,1665,1693,65.498,65.4546890258789,0,0,0,0,2/8/2015 6:19:50 AM,
2,0,467,4372.82051282051,3835.38461538462,3964.61538461539,3985.64102564103,4497.4358974359,4451.79487179487,4317.94871794872,4503.58974358974,4671.28205128205,4148.20512820513,4203.58974358974,4199.48717948718,4045.12820512821,4194.35897435897,1663,1692,65.506,65.4546890258789,0,0,0,0,2/8/2015 6:19:50 AM,
3,0,494,4320,3825.64102564103,3972.30769230769,3965.12820512821,4477.4358974359,4444.10256410256,4317.94871794872,4501.02564102564,4664.10256410256,4161.02564102564,4201.53846153846,4210.76923076923,4035.38461538462,4145.64102564103,1664,1692,65.513,65.4546890258789,0,0,0,0,2/8/2015 6:19:50 AM,
4,0,473,4315.89743589744,3804.61538461539,3970.76923076923,3951.28205128205,4467.17948717949,4413.33333333333,4319.48717948718,4504.10256410256,4672.82051282051,4143.07692307692,4216.92307692308,4225.12820512821,4030.25641025641,4097.94871794872,1664,1691,65.521,65.4546890258789,0,0,0,0,2/8/2015 6:19:50 AM,
5,0,461,4347.17948717949,3811.28205128205,3951.28205128205,3952.82051282051,4490.25641025641,4409.23076923077,4320,4505.12820512821,4687.69230769231,4135.38461538462,4211.79487179487,4198.46153846154,4033.33333333333,4159.48717948718,1664,1692,65.53,65.4546890258789,0,0,0,0,2/8/2015 6:19:50 AM,
6,0,481,4331.79487179487,3821.02564102564,3949.23076923077,3959.48717948718,4498.97435897436,4437.94871794872,4319.48717948718,4505.64102564103,4688.71794871795,4138.46153846154,4191.28205128205,4192.30769230769,4027.69230769231,4187.17948717949,1664,1691,65.538,65.4546890258789,0,0,0,0,2/8/2015 6:19:50 AM,
7,0,0,4286.66666666667,3801.53846153846,3974.8717948718,3956.92307692308,4470.25641025641,4451.28205128205,4320,4504.10256410256,4664.10256410256,4144.61538461538,4188.71794871795,4217.4358974359,4018.46153846154,4124.61538461538,1664,1692,65.546,65.4546890258789,0,0,0,0,2/8/2015 6:19:50 AM,
8,0,411,4305.64102564103,3796.92307692308,3982.5641025641,3942.5641025641,4468.71794871795,4440,4320,4497.4358974359,4641.02564102564,4153.33333333333,4203.07692307692,4211.79487179487,4020,4106.15384615385,1664,1691,65.552,65.4546890258789,0,0,0,0,2/8/2015 6:19:50 AM,
9,0,426,4345.12820512821,3822.5641025641,3962.5641025641,3937.94871794872,4503.58974358974,4450.25641025641,4318.46153846154,4501.02564102564,4667.69230769231,4143.07692307692,4207.17948717949,4188.20512820513,4027.17948717949,4139.48717948718,1663,1692,65.56,65.4546890258789,0,0,0,0,2/8/2015 6:19:50 AM,
10,0,431,4326.66666666667,3829.74358974359,3956.41025641026,3944.10256410256,4505.12820512821,4473.84615384615,4317.94871794872,4512.30769230769,4698.46153846154,4126.66666666667,4197.94871794872,4189.74358974359,4033.84615384615,4152.30769230769,1664,1691,65.568,65.4546890258789,0,0,0,0,2/8/2015 6:19:50 AM,
11,0,452,4291.79487179487,3815.38461538462,3976.41025641026,3942.05128205128,4486.15384615385,4483.58974358974,4319.48717948718,4510.76923076923,4677.4358974359,4137.4358974359,4184.10256410256,4201.53846153846,4034.35897435898,4151.79487179487,1663,1692,65.575,65.4546890258789,0,0,0,0,2/8/2015 6:19:50 AM,
12,0,420,4283.07692307692,3813.33333333333,3987.17948717949,3932.30769230769,4487.17948717949,4476.92307692308,4320,4504.10256410256,4665.12820512821,4155.89743589744,4183.07692307692,4204.10256410256,4022.05128205128,4132.30769230769,1663,1692,65.584,65.4546890258789,0,0,0,0,2/8/2015 6:19:50 AM,
13,0,437,4286.15384615385,3817.94871794872,3980,3925.12820512821,4491.79487179487,4450.25641025641,4319.48717948718,4506.66666666667,4686.15384615385,4156.41025641026,4189.23076923077,4204.61538461538,4005.64102564103,4105.12820512821,1663,1692,65.592,65.4546890258789,0,0,0,0,2/8/2015 6:19:50 AM,
14,0,431,4278.97435897436,3820.51282051282,3973.84615384615,3923.58974358974,4500,4447.69230769231,4319.48717948718,4507.17948717949,4677.4358974359,4148.71794871795,4188.71794871795,4183.07692307692,4005.12820512821,4134.8717948718,1664,1693,65.6,65.4546890258789,0,0,0,0,2/8/2015 6:19:50 AM,
15,0,452,4249.74358974359,3828.20512820513,3978.46153846154,3924.61538461539,4500,4488.20512820513,4320,4506.66666666667,4660,4138.97435897436,4186.15384615385,4165.12820512821,4012.82051282051,4128.71794871795,1663,1691,65.608,65.5797958374023,0,0,0,0,2/8/2015 6:19:50 AM,
16,0,0,4234.8717948718,3825.12820512821,3990.76923076923,3928.20512820513,4487.17948717949,4497.94871794872,4319.48717948718,4508.20512820513,4677.94871794872,4133.84615384615,4178.46153846154,4186.15384615385,4006.66666666667,4069.74358974359,1662,1692,65.615,65.5797958374023,0,0,0,0,2/8/2015 6:19:50 AM,
17,0,0,4253.33333333333,3812.82051282051,3989.23076923077,3930.76923076923,4497.94871794872,4458.97435897436,4319.48717948718,4508.71794871795,4682.05128205128,4142.05128205128,4173.84615384615,4188.71794871795,3998.97435897436,4108.20512820513,1664,1692,65.623,65.5797958374023,0,0,0,0,2/8/2015 6:19:50 AM,
18,0,0,4255.89743589744,3814.8717948718,3984.61538461539,3918.46153846154,4506.66666666667,4458.97435897436,4319.48717948718,4506.15384615385,4660,4150.76923076923,4181.53846153846,4163.58974358974,4003.07692307692,4157.94871794872,1662,1693,65.631,65.5797958374023,0,0,0,0,2/8/2015 6:19:50 AM,
19,0,0,4249.23076923077,3820,3992.30769230769,3911.79487179487,4484.61538461538,4492.82051282051,4319.48717948718,4504.10256410256,4669.74358974359,4148.20512820513,4190.25641025641,4167.69230769231,4006.15384615385,4113.84615384615,1663,1694,65.639,65.6110687255859,0,0,0,0,2/8/2015 6:19:50 AM,
20,0,0,4256.92307692308,3818.46153846154,3988.20512820513,3929.23076923077,4482.05128205128,4487.17948717949,4319.48717948718,4500.51282051282,4694.35897435897,4137.94871794872,4188.20512820513,4180.51282051282,4005.64102564103,4091.79487179487,1662,1694,65.646,65.6110687255859,0,0,0,0,2/8/2015 6:19:50 AM,
21,0,0,4244.61538461538,3816.92307692308,3973.33333333333,3925.12820512821,4497.4358974359,4480,4319.48717948718,4497.4358974359,4688.71794871795,4133.84615384615,4177.94871794872,4163.07692307692,4006.15384615385,4134.35897435897,1663,1693,65.654,65.6110687255859,0,0,0,0,2/8/2015 6:19:50 AM,
22,0,0,4217.4358974359,3807.69230769231,3983.07692307692,3901.02564102564,4492.82051282051,4477.4358974359,4319.48717948718,4497.4358974359,4676.92307692308,4141.02564102564,4172.30769230769,4156.41025641026,4000.51282051282,4130.76923076923,1663,1694,65.662,65.6110687255859,0,0,0,0,2/8/2015 6:19:50 AM,
23,0,0,4221.02564102564,3800.51282051282,4003.07692307692,3911.79487179487,4483.58974358974,4447.17948717949,4319.48717948718,4500,4668.71794871795,4141.53846153846,4177.94871794872,4170.25641025641,3989.74358974359,4072.30769230769,1663,1694,65.67,65.6110687255859,0,0,0,0,2/8/2015 6:19:50 AM,
24,0,0,4232.82051282051,3798.97435897436,3990.25641025641,3925.64102564103,4486.15384615385,4454.35897435897,4319.48717948718,4504.10256410256,4656.41025641026,4126.15384615385,4184.10256410256,4165.12820512821,3990.76923076923,4071.28205128205,1663,1694,65.679,65.6110687255859,0,0,0,0,2/8/2015 6:19:50 AM,
25,0,0,4232.30769230769,3794.35897435898,3967.17948717949,3903.58974358974,4498.46153846154,4499.48717948718,4319.48717948718,4499.48717948718,4665.64102564103,4118.97435897436,4182.5641025641,4150.25641025641,3998.46153846154,4120.51282051282,1664,1693,65.686,65.6110687255859,0,0,0,0,2/8/2015 6:19:50 AM,
26,0,0,4211.79487179487,3794.35897435898,3968.71794871795,3886.15384615385,4487.69230769231,4492.30769230769,4319.48717948718,4491.28205128205,4671.79487179487,4123.07692307692,4182.05128205128,4151.28205128205,3994.8717948718,4121.53846153846,1664,1694,65.694,65.6110687255859,0,0,0,0,2/8/2015 6:19:50 AM,
27,0,0,4192.82051282051,3798.46153846154,3980,3894.8717948718,4469.23076923077,4462.05128205128,4320,4496.92307692308,4661.02564102564,4121.02564102564,4182.5641025641,4161.02564102564,3981.53846153846,4100.51282051282,1664,1694,65.702,65.6110687255859,0,0,0,0,2/8/2015 6:19:50 AM,
28,0,0,4224.10256410256,3805.64102564103,3997.94871794872,3908.20512820513,4504.61538461538,4477.4358974359,4319.48717948718,4517.4358974359,4692.82051282051,4135.38461538462,4184.61538461538,4168.71794871795,3985.64102564103,4108.71794871795,1665,1695,65.71,65.6110687255859,0,0,0,0,2/8/2015 6:19:50 AM,
29,0,0,4251.28205128205,3803.07692307692,4009.74358974359,3910.25641025641,4530.25641025641,4467.17948717949,4319.48717948718,4508.20512820513,4687.17948717949,4156.41025641026,4187.17948717949,4171.28205128205,3991.79487179487,4093.84615384615,1665,1695,65.718,65.6110687255859,0,0,0,0,2/8/2015 6:19:50 AM,
30,0,0,4239.48717948718,3789.74358974359,3991.28205128205,3900,4492.30769230769,4426.66666666667,4320,4475.38461538462,4617.4358974359,4146.66666666667,4181.02564102564,4162.5641025641,3981.02564102564,4087.69230769231,1664,1695,65.726,65.6110687255859,0,0,0,0,2/8/2015 6:19:50 AM,
31,0,0,4248.71794871795,3797.94871794872,3973.33333333333,3901.02564102564,4480.51282051282,4457.4358974359,4319.48717948718,4481.53846153846,4642.05128205128,4129.74358974359,4187.69230769231,4150.25641025641,3990.25641025641,4145.64102564103,1666,1693,65.733,65.7049026489258,0,0,0,0,2/8/2015 6:19:50 AM,
32,0,0,4272.82051282051,3823.07692307692,3988.20512820513,3925.64102564103,4510.76923076923,4505.64102564103,4317.4358974359,4513.33333333333,4731.28205128205,4137.4358974359,4207.17948717949,4153.33333333333,4020,4182.05128205128,1665,1694,65.74,65.7049026489258,0,0,0,0,2/8/2015 6:19:50 AM,
33,0,0,4253.33333333333,3813.33333333333,4009.23076923077,3930.25641025641,4508.71794871795,4480.51282051282,4317.4358974359,4512.30769230769,4724.10256410256,4149.23076923077,4197.4358974359,4164.61538461538,4020,4140,1666,1694,65.748,65.7049026489258,0,0,0,0,2/8/2015 6:19:50 AM,
34,0,0,4223.58974358974,3792.82051282051,4009.74358974359,3910.76923076923,4506.15384615385,4441.02564102564,4318.97435897436,4490.25641025641,4674.35897435897,4153.33333333333,4180,4167.69230769231,3996.41025641026,4092.30769230769,1665,1692,65.756,65.7049026489258,0,0,0,0,2/8/2015 6:19:50 AM,
35,0,0,4232.30769230769,3803.07692307692,3996.92307692308,3908.71794871795,4528.71794871795,4460,4317.94871794872,4489.23076923077,4680,4152.82051282051,4194.35897435897,4158.97435897436,4003.07692307692,4111.79487179487,1665,1693,65.764,65.7049026489258,0,0,0,0,2/8/2015 6:19:50 AM,
36,0,0,4241.53846153846,3798.97435897436,3983.07692307692,3910.25641025641,4511.79487179487,4477.94871794872,4317.94871794872,4493.84615384615,4685.64102564103,4142.5641025641,4201.53846153846,4147.17948717949,4015.89743589744,4149.74358974359,1666,1692,65.771,65.7049026489258,0,0,0,0,2/8/2015 6:19:50 AM,
37,0,0,4226.66666666667,3773.84615384615,3987.17948717949,3898.46153846154,4478.97435897436,4450.76923076923,4317.94871794872,4494.8717948718,4683.58974358974,4133.33333333333,4191.79487179487,4150.76923076923,3992.30769230769,4126.15384615385,1665,1693,65.778,65.7049026489258,0,0,0,0,2/8/2015 6:19:50 AM,
38,0,0,4211.28205128205,3780.51282051282,4005.64102564103,3897.94871794872,4495.38461538462,4444.61538461538,4317.94871794872,4502.05128205128,4697.4358974359,4135.89743589744,4198.97435897436,4167.69230769231,3978.97435897436,4075.89743589744,1664,1694,65.786,65.7049026489258,0,0,0,0,2/8/2015 6:19:50 AM,
39,0,0,4229.74358974359,3810.76923076923,4005.12820512821,3912.30769230769,4513.84615384615,4476.92307692308,4318.97435897436,4507.17948717949,4696.41025641026,4143.07692307692,4202.05128205128,4172.30769230769,4001.53846153846,4091.28205128205,1664,1694,65.794,65.7049026489258,0,0,0,0,2/8/2015 6:19:50 AM,
40,0,0,4264.61538461538,3820,3990.25641025641,3912.82051282051,4500.51282051282,4470.25641025641,4320,4508.20512820513,4687.69230769231,4138.97435897436,4190.25641025641,4158.46153846154,4016.41025641026,4156.92307692308,1665,1695,65.802,65.7049026489258,0,0,0,0,2/8/2015 6:19:50 AM,
41,0,0,4260.51282051282,3812.82051282051,3986.15384615385,3906.15384615385,4501.02564102564,4433.33333333333,4320,4505.64102564103,4691.79487179487,4136.92307692308,4196.41025641026,4143.07692307692,4010.25641025641,4193.33333333333,1664,1695,65.81,65.7049026489258,0,0,0,0,2/8/2015 6:19:50 AM,
42,0,0,4236.92307692308,3814.8717948718,3992.30769230769,3911.79487179487,4510.25641025641,4442.05128205128,4319.48717948718,4505.64102564103,4702.5641025641,4151.28205128205,4219.48717948718,4144.10256410256,4013.84615384615,4158.46153846154,1665,1694,65.817,65.7049026489258,0,0,0,0,2/8/2015 6:19:50 AM,
43,0,0,4232.82051282051,3820,3981.53846153846,3911.79487179487,4503.58974358974,4459.48717948718,4320,4504.10256410256,4684.61538461539,4150.25641025641,4223.58974358974,4151.79487179487,4017.4358974359,4111.28205128205,1664,1692,65.825,65.7049026489258,0,0,0,0,2/8/2015 6:19:50 AM,
44,0,0,4224.61538461538,3817.4358974359,3962.5641025641,3901.53846153846,4502.05128205128,4454.8717948718,4319.48717948718,4502.5641025641,4663.58974358974,4137.94871794872,4202.05128205128,4151.28205128205,4008.20512820513,4133.33333333333,1665,1692,65.834,65.7049026489258,0,0,0,0,2/8/2015 6:19:50 AM,
45,0,0,4211.79487179487,3814.35897435898,3964.61538461539,3896.41025641026,4509.74358974359,4464.61538461538,4320,4508.71794871795,4692.30769230769,4140,4186.66666666667,4148.71794871795,4002.05128205128,4150.25641025641,1665,1690,65.842,65.7049026489258,0,0,0,0,2/8/2015 6:19:50 AM,
46,0,0,4211.79487179487,3820.51282051282,3973.33333333333,3898.46153846154,4522.05128205128,4477.4358974359,4319.48717948718,4520,4726.66666666667,4143.58974358974,4205.12820512821,4152.82051282051,4004.10256410256,4111.79487179487,1665,1691,65.849,65.7049026489258,0,0,0,0,2/8/2015 6:19:50 AM,
47,0,0,4215.38461538462,3822.5641025641,3967.69230769231,3902.5641025641,4528.71794871795,4462.5641025641,4319.48717948718,4528.20512820513,4717.94871794872,4146.15384615385,4224.10256410256,4158.46153846154,4016.92307692308,4119.48717948718,1666,1691,65.857,65.8300094604492,0,0,0,0,2/8/2015 6:19:50 AM,
48,0,0,4216.92307692308,3808.20512820513,3955.89743589744,3887.69230769231,4507.17948717949,4444.61538461538,4320,4522.05128205128,4696.92307692308,4158.97435897436,4208.20512820513,4148.71794871795,4026.66666666667,4163.58974358974,1665,1693,65.865,65.8300094604492,0,0,0,0,2/8/2015 6:19:50 AM,
49,0,0,4214.8717948718,3797.4358974359,3952.30769230769,3877.4358974359,4490.25641025641,4442.05128205128,4319.48717948718,4510.25641025641,4704.10256410256,4162.05128205128,4193.84615384615,4141.02564102564,4017.94871794872,4140.51282051282,1666,1695,65.873,65.8300094604492,0,0,0,0,2/8/2015 6:19:50 AM,
50,0,0,4195.89743589744,3798.97435897436,3953.33333333333,3886.15384615385,4484.61538461538,4434.8717948718,4317.94871794872,4512.30769230769,4704.61538461539,4148.71794871795,4197.4358974359,4145.64102564103,3998.97435897436,4104.10256410256,1666,1696,65.881,65.8300094604492,0,0,0,0,2/8/2015 6:19:50 AM,
51,0,0,4183.58974358974,3797.94871794872,3955.89743589744,3877.94871794872,4473.33333333333,4442.05128205128,4317.94871794872,4522.05128205128,4693.33333333333,4151.28205128205,4197.4358974359,4146.15384615385,3989.23076923077,4128.20512820513,1666,1696,65.889,65.8300094604492,0,0,0,0,2/8/2015 6:19:51 AM,
52,0,0,4200.51282051282,3795.38461538462,3959.48717948718,3866.66666666667,4506.66666666667,4477.94871794872,4317.94871794872,4525.12820512821,4721.53846153846,4155.89743589744,4209.23076923077,4142.05128205128,4000.51282051282,4147.17948717949,1666,1696,65.897,65.8300094604492,0,0,0,0,2/8/2015 6:19:51 AM,
53,0,0,4216.41025641026,3800,3958.46153846154,3874.8717948718,4534.8717948718,4482.05128205128,4317.94871794872,4525.64102564103,4736.41025641026,4137.4358974359,4215.89743589744,4137.94871794872,4016.92307692308,4130.76923076923,1666,1695,65.903,65.8300094604492,0,0,0,0,2/8/2015 6:19:51 AM,
54,0,0,4218.46153846154,3806.66666666667,3952.82051282051,3884.10256410256,4498.46153846154,4435.89743589744,4317.94871794872,4520.51282051282,4687.17948717949,4123.58974358974,4193.33333333333,4139.48717948718,4007.17948717949,4108.20512820513,1666,1693,65.911,65.8300094604492,0,0,0,0,2/8/2015 6:19:51 AM,
55,0,0,4215.38461538462,3812.82051282051,3956.92307692308,3886.66666666667,4486.15384615385,4432.82051282051,4319.48717948718,4508.71794871795,4674.8717948718,4134.35897435897,4184.10256410256,4151.79487179487,3982.5641025641,4098.97435897436,1666,1694,65.92,65.8300094604492,0,0,0,0,2/8/2015 6:19:51 AM,
56,0,0,4208.71794871795,3818.46153846154,3969.74358974359,3889.23076923077,4511.79487179487,4482.5641025641,4320,4507.17948717949,4732.82051282051,4146.66666666667,4207.17948717949,4151.79487179487,3987.17948717949,4127.17948717949,1667,1692,65.928,65.8300094604492,0,0,0,0,2/8/2015 6:19:51 AM,
57,0,0,4211.79487179487,3815.89743589744,3969.74358974359,3881.53846153846,4505.12820512821,4474.35897435897,4319.48717948718,4508.20512820513,4729.23076923077,4135.89743589744,4210.25641025641,4130.76923076923,4001.02564102564,4154.35897435897,1665,1693,65.936,65.8300094604492,0,0,0,0,2/8/2015 6:19:51 AM,
58,0,0,4225.12820512821,3816.41025641026,3954.8717948718,3877.94871794872,4494.8717948718,4431.79487179487,4319.48717948718,4502.05128205128,4681.02564102564,4125.12820512821,4195.38461538462,4126.15384615385,4000,4140.51282051282,1665,1692,65.943,65.8300094604492,0,0,0,0,2/8/2015 6:19:51 AM,
59,0,0,4209.23076923077,3821.53846153846,3955.38461538462,3882.5641025641,4505.12820512821,4443.58974358974,4320,4505.12820512821,4705.64102564103,4133.33333333333,4205.64102564103,4147.69230769231,4003.58974358974,4092.30769230769,1664,1693,65.951,65.8300094604492,0,0,0,0,2/8/2015 6:19:51 AM,
60,0,0,4192.82051282051,3817.4358974359,3969.23076923077,3877.4358974359,4492.82051282051,4474.8717948718,4320,4507.17948717949,4729.23076923077,4133.84615384615,4216.92307692308,4162.5641025641,4007.69230769231,4051.79487179487,1665,1694,65.959,65.8300094604492,0,0,0,0,2/8/2015 6:19:51 AM,
61,0,0,4218.97435897436,3816.92307692308,3959.48717948718,3878.97435897436,4476.41025641026,4468.20512820513,4319.48717948718,4496.41025641026,4700.51282051282,4122.5641025641,4207.69230769231,4150.25641025641,4000.51282051282,4094.35897435898,1664,1694,65.967,65.8300094604492,0,0,0,0,2/8/2015 6:19:51 AM,
62,0,0,4230.25641025641,3821.53846153846,3939.48717948718,3876.92307692308,4476.92307692308,4432.30769230769,4319.48717948718,4480,4684.61538461539,4110.76923076923,4195.89743589744,4125.64102564103,3995.38461538462,4148.71794871795,1665,1696,65.976,65.8300094604492,0,0,0,0,2/8/2015 6:19:51 AM,
63,0,0,4201.53846153846,3812.30769230769,3939.48717948718,3858.97435897436,4469.74358974359,4407.69230769231,4320,4472.30769230769,4686.15384615385,4102.05128205128,4185.12820512821,4123.07692307692,3989.23076923077,4107.17948717949,1665,1695,65.984,65.9551162719727,0,0,0,0,2/8/2015 6:19:51 AM,
64,0,455,4191.28205128205,3805.64102564103,3952.82051282051,3853.33333333333,4474.8717948718,4421.53846153846,4319.48717948718,4483.58974358974,4701.53846153846,4111.28205128205,4183.07692307692,4137.94871794872,3975.89743589744,4063.58974358974,1665,1695,65.991,65.9551162719727,0,0,0,0,2/8/2015 6:19:51 AM,
65,0,442,4207.69230769231,3814.35897435898,3957.94871794872,3867.69230769231,4490.76923076923,4432.30769230769,4317.4358974359,4489.23076923077,4707.69230769231,4120,4194.8717948718,4138.46153846154,3975.89743589744,4076.92307692308,1665,1693,65.999,65.9551162719727,0,0,0,0,2/8/2015 6:19:51 AM,
66,0,469,4200,3812.82051282051,3949.74358974359,3864.10256410256,4480.51282051282,4417.4358974359,4317.4358974359,4475.38461538462,4671.79487179487,4104.61538461538,4197.4358974359,4135.89743589744,3986.15384615385,4065.12820512821,1665,1693,66.006,65.9551162719727,0,0,0,0,2/8/2015 6:19:51 AM,
67,0,494,4189.23076923077,3795.89743589744,3938.46153846154,3847.69230769231,4470.76923076923,4432.30769230769,4318.97435897436,4471.28205128205,4658.46153846154,4101.02564102564,4188.71794871795,4138.46153846154,3987.69230769231,4057.94871794872,1665,1691,66.014,65.9551162719727,0,0,0,0,2/8/2015 6:19:51 AM,
68,0,474,4203.58974358974,3796.92307692308,3937.94871794872,3851.79487179487,4489.23076923077,4471.79487179487,4318.46153846154,4476.41025641026,4699.48717948718,4122.05128205128,4189.74358974359,4133.84615384615,3981.02564102564,4084.61538461539,1664,1694,66.022,65.9551162719727,0,0,0,0,2/8/2015 6:19:51 AM,
69,0,463,4191.28205128205,3803.58974358974,3956.92307692308,3853.84615384615,4495.38461538462,4451.28205128205,4317.4358974359,4465.12820512821,4704.61538461539,4126.15384615385,4186.66666666667,4141.53846153846,3971.28205128205,4062.05128205128,1664,1692,66.029,65.9551162719727,0,0,0,0,2/8/2015 6:19:51 AM,
70,0,481,4175.38461538462,3795.89743589744,3963.07692307692,3850.25641025641,4474.35897435897,4400,4317.94871794872,4452.82051282051,4667.17948717949,4115.89743589744,4184.10256410256,4156.41025641026,3967.69230769231,4045.64102564103,1663,1693,66.037,65.9551162719727,0,0,0,0,2/8/2015 6:19:51 AM,
71,0,0,4217.94871794872,3803.07692307692,3944.10256410256,3867.69230769231,4485.12820512821,4410.25641025641,4317.94871794872,4456.41025641026,4667.17948717949,4120,4201.02564102564,4142.05128205128,3981.02564102564,4113.84615384615,1663,1693,66.045,65.9551162719727,0,0,0,0,2/8/2015 6:19:51 AM,
72,0,411,4254.8717948718,3827.69230769231,3934.8717948718,3880,4519.48717948718,4437.4358974359,4317.94871794872,4466.15384615385,4689.23076923077,4125.12820512821,4206.66666666667,4126.15384615385,4004.10256410256,4157.4358974359,1663,1693,66.053,65.9551162719727,0,0,0,0,2/8/2015 6:19:51 AM,
73,0,426,4233.33333333333,3833.33333333333,3946.15384615385,3861.53846153846,4509.23076923077,4433.84615384615,4317.94871794872,4475.38461538462,4706.15384615385,4126.15384615385,4192.30769230769,4139.48717948718,4007.69230769231,4114.8717948718,1664,1695,66.061,65.9551162719727,0,0,0,0,2/8/2015 6:19:51 AM,
74,0,432,4225.64102564103,3827.69230769231,3947.69230769231,3858.97435897436,4478.46153846154,4435.38461538462,4317.94871794872,4479.48717948718,4716.41025641026,4122.5641025641,4195.89743589744,4152.82051282051,3989.74358974359,4084.61538461539,1664,1695,66.07,65.9551162719727,0,0,0,0,2/8/2015 6:19:51 AM,
75,0,452,4236.41025641026,3833.33333333333,3943.58974358974,3870.25641025641,4486.15384615385,4456.41025641026,4317.94871794872,4483.58974358974,4721.53846153846,4125.12820512821,4218.46153846154,4149.74358974359,3988.20512820513,4110.25641025641,1663,1695,66.077,65.9551162719727,0,0,0,0,2/8/2015 6:19:51 AM,
76,0,427,4205.12820512821,3835.38461538462,3952.82051282051,3854.8717948718,4495.38461538462,4474.8717948718,4317.94871794872,4489.74358974359,4723.07692307692,4124.10256410256,4221.02564102564,4152.82051282051,4001.02564102564,4104.10256410256,1664,1695,66.085,65.9551162719727,0,0,0,0,2/8/2015 6:19:51 AM,
77,0,437,4185.64102564103,3823.58974358974,3950.76923076923,3838.46153846154,4472.82051282051,4453.84615384615,4317.94871794872,4480,4688.71794871795,4094.35897435898,4204.10256410256,4154.8717948718,3984.10256410256,4064.61538461539,1663,1695,66.093,65.9551162719727,0,0,0,0,2/8/2015 6:19:51 AM,
78,0,432,4221.02564102564,3816.92307692308,3940.51282051282,3846.15384615385,4476.92307692308,4416.41025641026,4317.94871794872,4466.15384615385,4655.89743589744,4082.5641025641,4194.35897435897,4147.69230769231,3971.79487179487,4078.46153846154,1663,1693,66.1,65.9551162719727,0,0,0,0,2/8/2015 6:19:51 AM,
79,0,452,4254.8717948718,3818.97435897436,3952.82051282051,3872.30769230769,4507.17948717949,4425.12820512821,4317.94871794872,4470.25641025641,4682.05128205128,4119.48717948718,4201.53846153846,4156.92307692308,3997.94871794872,4116.41025641026,1663,1692,66.108,66.0802230834961,0,0,0,0,2/8/2015 6:19:51 AM,
80,0,427,4255.89743589744,3822.5641025641,3963.07692307692,3884.61538461539,4509.74358974359,4454.8717948718,4317.94871794872,4468.71794871795,4710.25641025641,4147.17948717949,4210.76923076923,4170.76923076923,4014.35897435898,4116.41025641026,1663,1691,66.115,66.0802230834961,0,0,0,0,2/8/2015 6:19:51 AM,
81,0,437,4249.74358974359,3829.23076923077,3957.94871794872,3866.15384615385,4509.23076923077,4446.15384615385,4317.94871794872,4461.53846153846,4696.41025641026,4132.82051282051,4216.41025641026,4168.71794871795,4014.8717948718,4112.30769230769,1663,1691,66.123,66.0802230834961,0,0,0,0,2/8/2015 6:19:51 AM,
82,0,432,4251.79487179487,3832.82051282051,3964.61538461539,3849.74358974359,4508.20512820513,4434.8717948718,4317.94871794872,4467.17948717949,4688.20512820513,4121.53846153846,4227.17948717949,4169.23076923077,4026.15384615385,4128.20512820513,1664,1691,66.131,66.0802230834961,0,0,0,0,2/8/2015 6:19:51 AM,
83,0,452,4250.76923076923,3825.64102564103,3965.64102564103,3853.84615384615,4479.48717948718,4453.84615384615,4317.94871794872,4476.41025641026,4709.23076923077,4134.35897435897,4234.8717948718,4164.10256410256,4025.64102564103,4130.25641025641,1663,1693,66.139,66.1115036010742,0,0,0,0,2/8/2015 6:19:51 AM,
84,0,427,4237.4358974359,3818.97435897436,3950.25641025641,3853.33333333333,4475.38461538462,4449.74358974359,4317.94871794872,4475.89743589744,4720.51282051282,4136.92307692308,4223.58974358974,4152.30769230769,4004.61538461539,4115.89743589744,1664,1694,66.147,66.1115036010742,0,0,0,0,2/8/2015 6:19:51 AM,
85,0,437,4216.41025641026,3806.15384615385,3947.17948717949,3840,4493.84615384615,4410.25641025641,4317.94871794872,4474.35897435897,4700,4116.92307692308,4198.97435897436,4161.02564102564,3987.17948717949,4096.41025641026,1664,1695,66.155,66.1115036010742,0,0,0,0,2/8/2015 6:19:51 AM,
86,0,432,4234.35897435897,3798.97435897436,3949.23076923077,3836.92307692308,4486.15384615385,4394.35897435897,4317.94871794872,4481.02564102564,4693.33333333333,4111.28205128205,4198.46153846154,4170.76923076923,3989.74358974359,4096.41025641026,1665,1694,66.162,66.1115036010742,0,0,0,0,2/8/2015 6:19:51 AM,
87,0,452,4276.41025641026,3822.5641025641,3951.79487179487,3837.4358974359,4496.41025641026,4426.15384615385,4318.46153846154,4494.8717948718,4728.20512820513,4133.33333333333,4228.71794871795,4157.4358974359,4013.84615384615,4124.61538461538,1665,1696,66.17,66.1115036010742,0,0,0,0,2/8/2015 6:19:51 AM,
88,0,427,4265.12820512821,3833.33333333333,3955.89743589744,3830.76923076923,4514.35897435897,4468.20512820513,4318.97435897436,4493.84615384615,4733.33333333333,4136.41025641026,4235.89743589744,4155.38461538462,4012.30769230769,4113.84615384615,1666,1694,66.178,66.1115036010742,0,0,0,0,2/8/2015 6:19:51 AM,
89,0,437,4242.5641025641,3813.33333333333,3948.20512820513,3835.38461538462,4488.20512820513,4468.20512820513,4318.97435897436,4475.38461538462,4695.38461538462,4118.97435897436,4217.4358974359,4169.74358974359,3984.61538461539,4096.92307692308,1665,1694,66.186,66.1115036010742,0,0,0,0,2/8/2015 6:19:51 AM,
90,0,432,4271.79487179487,3817.94871794872,3947.17948717949,3852.30769230769,4477.94871794872,4429.23076923077,4318.97435897436,4471.28205128205,4698.97435897436,4114.35897435897,4213.84615384615,4171.28205128205,3993.84615384615,4142.05128205128,1665,1694,66.194,66.1115036010742,0,0,0,0,2/8/2015 6:19:51 AM,
91,0,452,4288.20512820513,3840,3962.05128205128,3854.35897435898,4516.41025641026,4407.69230769231,4318.97435897436,4479.48717948718,4721.02564102564,4123.58974358974,4220,4167.69230769231,4014.8717948718,4164.61538461538,1665,1693,66.201,66.1115036010742,0,0,0,0,2/8/2015 6:19:51 AM,
92,0,427,4262.05128205128,3834.8717948718,3959.48717948718,3839.48717948718,4516.41025641026,4431.79487179487,4318.97435897436,4476.41025641026,4706.15384615385,4134.35897435897,4222.5641025641,4166.66666666667,4010.25641025641,4128.20512820513,1665,1694,66.209,66.1115036010742,0,0,0,0,2/8/2015 6:19:51 AM,
93,0,437,4255.38461538462,3824.61538461539,3954.35897435898,3833.33333333333,4475.38461538462,4455.89743589744,4318.97435897436,4471.79487179487,4699.48717948718,4133.84615384615,4232.82051282051,4169.74358974359,4008.20512820513,4120,1664,1692,66.218,66.1115036010742,0,0,0,0,2/8/2015 6:19:51 AM,
94,0,432,4270.76923076923,3825.12820512821,3965.64102564103,3832.30769230769,4474.8717948718,4424.10256410256,4318.97435897436,4474.8717948718,4711.28205128205,4125.64102564103,4230.25641025641,4172.82051282051,4009.74358974359,4132.30769230769,1664,1694,66.226,66.1115036010742,0,0,0,0,2/8/2015 6:19:51 AM,
95,0,452,4277.4358974359,3826.15384615385,3956.92307692308,3832.30769230769,4497.94871794872,4392.82051282051,4318.97435897436,4474.8717948718,4704.61538461539,4127.17948717949,4217.4358974359,4164.10256410256,4002.05128205128,4131.28205128205,1664,1693,66.234,66.2053298950195,0,0,0,0,2/8/2015 6:19:51 AM,
96,0,427,4276.92307692308,3836.41025641026,3941.02564102564,3840,4494.8717948718,4417.94871794872,4318.97435897436,4472.30769230769,4701.02564102564,4130.76923076923,4226.66666666667,4158.97435897436,4002.5641025641,4138.46153846154,1663,1694,66.242,66.2053298950195,0,0,0,0,2/8/2015 6:19:51 AM,
97,0,437,4271.79487179487,3845.64102564103,3947.69230769231,3835.89743589744,4491.28205128205,4433.33333333333,4318.97435897436,4481.02564102564,4721.53846153846,4121.02564102564,4237.94871794872,4167.17948717949,4004.61538461539,4133.33333333333,1664,1693,66.248,66.2053298950195,0,0,0,0,2/8/2015 6:19:51 AM,
98,0,432,4265.12820512821,3847.69230769231,3962.05128205128,3825.64102564103,4498.97435897436,4415.89743589744,4318.97435897436,4492.82051282051,4744.10256410256,4118.46153846154,4231.28205128205,4181.53846153846,4004.61538461539,4119.48717948718,1663,1695,66.256,66.2053298950195,0,0,0,0,2/8/2015 6:19:51 AM,
99,0,452,4260.51282051282,3849.23076923077,3960.51282051282,3818.46153846154,4481.53846153846,4406.15384615385,4318.97435897436,4484.61538461538,4729.23076923077,4128.71794871795,4231.28205128205,4188.71794871795,4003.58974358974,4130.25641025641,1665,1692,66.264,66.2053298950195,0,0,0,0,2/8/2015 6:19:51 AM,
100,0,427,4264.61538461538,3846.66666666667,3944.61538461539,3803.58974358974,4472.30769230769,4413.33333333333,4318.97435897436,4469.23076923077,4684.61538461539,4126.66666666667,4236.92307692308,4178.46153846154,3992.30769230769,4137.94871794872,1664,1692,66.272,66.2053298950195,0,0,0,0,2/8/2015 6:19:51 AM,
101,0,437,4278.46153846154,3850.25641025641,3940.51282051282,3798.46153846154,4498.97435897436,4423.58974358974,4318.97435897436,4472.30769230769,4686.66666666667,4117.4358974359,4230.76923076923,4172.82051282051,3992.82051282051,4126.66666666667,1666,1692,66.279,66.2053298950195,0,0,0,0,2/8/2015 6:19:51 AM,
102,0,432,4290.25641025641,3864.61538461539,3961.02564102564,3815.89743589744,4493.33333333333,4431.28205128205,4318.97435897436,4481.53846153846,4730.76923076923,4126.66666666667,4225.12820512821,4186.66666666667,4013.33333333333,4145.12820512821,1666,1691,66.287,66.2053298950195,0,0,0,0,2/8/2015 6:19:51 AM,
103,0,452,4301.02564102564,3866.66666666667,3970.76923076923,3823.58974358974,4479.48717948718,4429.74358974359,4318.97435897436,4476.92307692308,4718.46153846154,4136.41025641026,4233.84615384615,4192.82051282051,4020.51282051282,4183.58974358974,1665,1693,66.295,66.2053298950195,0,0,0,0,2/8/2015 6:19:51 AM,
104,0,427,4309.23076923077,3862.05128205128,3953.84615384615,3813.84615384615,4511.79487179487,4422.5641025641,4318.97435897436,4471.79487179487,4684.61538461539,4127.69230769231,4235.89743589744,4181.02564102564,4007.69230769231,4168.71794871795,1666,1692,66.303,66.2053298950195,0,0,0,0,2/8/2015 6:19:51 AM,
105,0,437,4312.30769230769,3870.76923076923,3956.41025641026,3816.41025641026,4529.23076923077,4423.58974358974,4318.97435897436,4476.92307692308,4715.89743589744,4124.61538461538,4234.35897435897,4183.07692307692,4000,4115.38461538462,1665,1693,66.312,66.2053298950195,0,0,0,0,2/8/2015 6:19:51 AM,
106,0,432,4313.84615384615,3867.69230769231,3977.4358974359,3820,4499.48717948718,4418.97435897436,4318.97435897436,4479.48717948718,4746.66666666667,4127.17948717949,4246.66666666667,4190.25641025641,4004.10256410256,4125.64102564103,1666,1692,66.32,66.2053298950195,0,0,0,0,2/8/2015 6:19:51 AM,
107,0,452,4297.4358974359,3843.07692307692,3962.5641025641,3807.69230769231,4478.97435897436,4409.23076923077,4318.97435897436,4473.33333333333,4711.79487179487,4117.94871794872,4243.07692307692,4183.07692307692,4004.10256410256,4177.4358974359,1665,1692,66.328,66.2053298950195,0,0,0,0,2/8/2015 6:19:51 AM,
108,0,427,4276.92307692308,3843.58974358974,3937.94871794872,3795.89743589744,4485.64102564103,4414.8717948718,4318.97435897436,4469.74358974359,4694.35897435897,4121.53846153846,4225.12820512821,4176.92307692308,4002.5641025641,4177.4358974359,1665,1691,66.334,66.2053298950195,0,0,0,0,2/8/2015 6:19:51 AM,
109,0,437,4290.76923076923,3874.35897435898,3953.33333333333,3797.4358974359,4487.69230769231,4435.89743589744,4318.97435897436,4473.84615384615,4711.28205128205,4143.07692307692,4236.92307692308,4182.5641025641,4013.33333333333,4160,1664,1692,66.342,66.2053298950195,0,0,0,0,2/8/2015 6:19:51 AM,
110,0,432,4307.69230769231,3882.05128205128,3969.23076923077,3801.02564102564,4474.35897435897,4433.84615384615,4318.97435897436,4478.97435897436,4690.25641025641,4144.61538461538,4248.71794871795,4189.74358974359,4012.30769230769,4149.74358974359,1666,1691,66.35,66.2053298950195,0,0,0,0,2/8/2015 6:19:51 AM,
111,0,452,4303.07692307692,3872.82051282051,3961.02564102564,3803.07692307692,4478.97435897436,4406.15384615385,4318.97435897436,4474.35897435897,4675.89743589744,4130.76923076923,4233.84615384615,4185.64102564103,4003.07692307692,4149.23076923077,1665,1691,66.358,66.3304443359375,0,0,0,0,2/8/2015 6:19:51 AM,
112,0,427,4318.46153846154,3886.66666666667,3965.12820512821,3820.51282051282,4518.46153846154,4414.35897435897,4318.97435897436,4473.33333333333,4726.15384615385,4130.25641025641,4236.41025641026,4183.07692307692,4019.48717948718,4189.74358974359,1665,1692,66.366,66.3304443359375,0,0,0,0,2/8/2015 6:19:51 AM,
113,0,437,4341.53846153846,3903.07692307692,3977.94871794872,3832.30769230769,4535.38461538462,4446.66666666667,4318.97435897436,4485.64102564103,4761.53846153846,4140,4259.48717948718,4193.84615384615,4035.89743589744,4201.02564102564,1664,1692,66.373,66.3304443359375,0,0,0,0,2/8/2015 6:19:51 AM,
114,0,432,4332.82051282051,3898.97435897436,3976.41025641026,3823.07692307692,4513.33333333333,4450.25641025641,4318.97435897436,4489.74358974359,4745.12820512821,4152.30769230769,4251.79487179487,4202.5641025641,4020,4144.10256410256,1664,1694,66.38,66.3304443359375,0,0,0,0,2/8/2015 6:19:51 AM,
115,0,452,4320,3887.69230769231,3974.35897435898,3813.33333333333,4497.4358974359,4442.05128205128,4318.97435897436,4478.97435897436,4734.8717948718,4159.48717948718,4229.23076923077,4198.97435897436,4008.71794871795,4137.4358974359,1665,1693,66.388,66.3304443359375,0,0,0,0,2/8/2015 6:19:51 AM,
116,0,427,4326.66666666667,3880,3965.64102564103,3808.71794871795,4492.30769230769,4436.92307692308,4318.97435897436,4470.76923076923,4719.48717948718,4143.58974358974,4232.82051282051,4193.84615384615,4017.94871794872,4184.61538461538,1664,1693,66.397,66.3304443359375,0,0,0,0,2/8/2015 6:19:51 AM,
117,0,437,4320,3875.38461538462,3954.8717948718,3803.07692307692,4492.30769230769,4415.38461538462,4318.97435897436,4464.61538461538,4690.25641025641,4120.51282051282,4240.51282051282,4188.20512820513,4024.61538461539,4178.46153846154,1664,1693,66.405,66.3304443359375,0,0,0,0,2/8/2015 6:19:51 AM,
118,0,432,4301.02564102564,3876.92307692308,3966.66666666667,3798.46153846154,4512.30769230769,4406.66666666667,4318.97435897436,4456.92307692308,4691.28205128205,4126.66666666667,4229.74358974359,4186.66666666667,4019.48717948718,4156.92307692308,1664,1692,66.413,66.3304443359375,0,0,0,0,2/8/2015 6:19:51 AM,
119,0,452,4319.48717948718,3887.17948717949,3978.46153846154,3806.15384615385,4531.79487179487,4429.23076923077,4318.97435897436,4461.53846153846,4708.71794871795,4143.07692307692,4227.69230769231,4200.51282051282,4012.82051282051,4183.58974358974,1665,1692,66.419,66.3304443359375,0,0,0,0,2/8/2015 6:19:51 AM,
120,0,427,4357.94871794872,3898.46153846154,3971.79487179487,3813.33333333333,4524.61538461538,4445.64102564103,4318.97435897436,4473.84615384615,4717.4358974359,4138.97435897436,4245.12820512821,4203.07692307692,4021.02564102564,4209.23076923077,1664,1692,66.428,66.3304443359375,0,0,0,0,2/8/2015 6:19:51 AM,
121,0,437,4346.66666666667,3899.48717948718,3968.20512820513,3809.74358974359,4507.17948717949,4444.61538461538,4318.97435897436,4473.84615384615,4721.02564102564,4137.4358974359,4252.30769230769,4191.28205128205,4031.79487179487,4186.15384615385,1665,1692,66.435,66.3304443359375,0,0,0,0,2/8/2015 6:19:51 AM,
122,0,432,4305.64102564103,3888.20512820513,3973.33333333333,3809.74358974359,4506.66666666667,4443.58974358974,4318.97435897436,4471.79487179487,4714.8717948718,4147.69230769231,4245.64102564103,4192.30769230769,4024.61538461539,4149.23076923077,1663,1691,66.443,66.3304443359375,0,0,0,0,2/8/2015 6:19:51 AM,
123,0,452,4312.30769230769,3881.53846153846,3977.4358974359,3819.48717948718,4505.64102564103,4444.61538461538,4318.97435897436,4471.79487179487,4718.46153846154,4145.12820512821,4237.4358974359,4205.12820512821,4012.82051282051,4146.66666666667,1664,1692,66.451,66.3304443359375,0,0,0,0,2/8/2015 6:19:51 AM,
124,0,427,4339.48717948718,3879.48717948718,3981.02564102564,3814.35897435898,4496.92307692308,4445.12820512821,4318.97435897436,4473.33333333333,4741.02564102564,4134.8717948718,4227.69230769231,4210.25641025641,4011.28205128205,4172.82051282051,1664,1690,66.46,66.3304443359375,0,0,0,0,2/8/2015 6:19:51 AM,
125,0,437,4332.30769230769,3879.48717948718,3980,3794.8717948718,4521.02564102564,4443.58974358974,4318.97435897436,4481.02564102564,4728.20512820513,4142.05128205128,4234.8717948718,4206.15384615385,4010.25641025641,4176.41025641026,1663,1692,66.467,66.3304443359375,0,0,0,0,2/8/2015 6:19:51 AM,
126,0,432,4323.58974358974,3886.15384615385,3971.28205128205,3801.53846153846,4537.94871794872,4446.66666666667,4319.48717948718,4489.23076923077,4698.46153846154,4154.35897435897,4249.23076923077,4200.51282051282,4010.25641025641,4163.07692307692,1664,1690,66.475,66.3304443359375,0,0,0,0,2/8/2015 6:19:51 AM,
127,0,452,4341.02564102564,3895.38461538462,3962.5641025641,3816.41025641026,4514.35897435897,4453.84615384615,4319.48717948718,4490.25641025641,4724.10256410256,4150.25641025641,4247.17948717949,4194.35897435897,4020.51282051282,4186.15384615385,1662,1690,66.483,66.4555511474609,0,0,0,0,2/8/2015 6:19:51 AM,
128,0,427,4358.97435897436,3901.02564102564,3969.74358974359,3815.38461538462,4512.82051282051,4457.94871794872,4320,4492.30769230769,4773.33333333333,4141.02564102564,4243.58974358974,4199.48717948718,4031.28205128205,4227.69230769231,1663,1690,66.491,66.4555511474609,0,0,0,0,2/8/2015 6:19:51 AM,
0,0,455,4351.28205128205,3901.02564102564,3990.76923076923,3821.02564102564,4531.28205128205,4463.58974358974,4319.48717948718,4494.8717948718,4768.20512820513,4149.74358974359,4254.8717948718,4213.84615384615,4036.92307692308,4228.71794871795,1662,1692,66.499,66.4555511474609,0,0,0,0,2/8/2015 6:19:51 AM,
1,0,442,4340,3905.64102564103,4000,3824.61538461539,4530.25641025641,4459.48717948718,4319.48717948718,4490.25641025641,4730.76923076923,4166.15384615385,4255.38461538462,4218.97435897436,4036.92307692308,4197.94871794872,1663,1693,66.506,66.4555511474609,0,0,0,0,2/8/2015 6:19:51 AM,
2,0,469,4351.28205128205,3920.51282051282,3990.76923076923,3819.48717948718,4531.28205128205,4444.10256410256,4319.48717948718,4487.17948717949,4732.82051282051,4162.5641025641,4245.12820512821,4213.84615384615,4034.35897435898,4207.69230769231,1663,1693,66.514,66.4555511474609,0,0,0,0,2/8/2015 6:19:51 AM,
3,0,494,4369.74358974359,3927.17948717949,3987.69230769231,3826.66666666667,4544.10256410256,4446.15384615385,4319.48717948718,4493.33333333333,4756.92307692308,4152.82051282051,4255.38461538462,4212.82051282051,4040,4229.74358974359,1664,1694,66.522,66.4555511474609,0,0,0,0,2/8/2015 6:19:51 AM,
4,0,474,4363.58974358974,3914.8717948718,3989.74358974359,3840.51282051282,4536.92307692308,4462.05128205128,4319.48717948718,4494.8717948718,4756.41025641026,4151.79487179487,4264.61538461538,4219.48717948718,4046.66666666667,4194.35897435897,1663,1693,66.53,66.4555511474609,0,0,0,0,2/8/2015 6:19:51 AM,
5,0,463,4344.10256410256,3906.66666666667,3988.71794871795,3827.17948717949,4523.07692307692,4461.53846153846,4319.48717948718,4488.71794871795,4742.5641025641,4153.84615384615,4254.8717948718,4218.46153846154,4037.4358974359,4181.53846153846,1664,1692,66.538,66.4555511474609,0,0,0,0,2/8/2015 6:19:51 AM,
6,0,481,4350.76923076923,3920,3995.38461538462,3818.97435897436,4528.20512820513,4458.46153846154,4319.48717948718,4488.71794871795,4747.69230769231,4150.76923076923,4251.28205128205,4213.84615384615,4033.84615384615,4227.17948717949,1663,1692,66.546,66.4555511474609,0,0,0,0,2/8/2015 6:19:51 AM,
7,0,0,4358.46153846154,3932.82051282051,3998.46153846154,3843.07692307692,4543.07692307692,4458.46153846154,4319.48717948718,4494.8717948718,4758.97435897436,4150.76923076923,4255.89743589744,4214.35897435897,4048.20512820513,4238.97435897436,1664,1690,66.553,66.4555511474609,0,0,0,0,2/8/2015 6:19:51 AM,
8,0,411,4343.58974358974,3923.07692307692,3987.17948717949,3841.02564102564,4546.15384615385,4445.64102564103,4319.48717948718,4494.35897435897,4748.20512820513,4157.94871794872,4251.28205128205,4215.38461538462,4038.46153846154,4202.5641025641,1663,1692,66.561,66.4555511474609,0,0,0,0,2/8/2015 6:19:51 AM,
9,0,426,4340.51282051282,3908.71794871795,3984.61538461539,3816.92307692308,4517.94871794872,4437.4358974359,4319.48717948718,4497.94871794872,4741.02564102564,4158.46153846154,4247.17948717949,4214.8717948718,4013.84615384615,4200,1664,1693,66.569,66.4555511474609,0,0,0,0,2/8/2015 6:19:51 AM,
10,0,432,4367.17948717949,3914.8717948718,3991.79487179487,3829.23076923077,4510.25641025641,4443.07692307692,4319.48717948718,4505.12820512821,4750.25641025641,4156.92307692308,4251.79487179487,4214.8717948718,4023.07692307692,4202.05128205128,1664,1694,66.577,66.4555511474609,0,0,0,0,2/8/2015 6:19:51 AM,
11,0,452,4385.64102564103,3929.23076923077,3989.74358974359,3853.84615384615,4538.46153846154,4451.28205128205,4319.48717948718,4497.94871794872,4749.74358974359,4149.23076923077,4249.74358974359,4219.48717948718,4042.05128205128,4185.64102564103,1665,1695,66.585,66.4555511474609,0,0,0,0,2/8/2015 6:19:51 AM,
12,0,429,4375.89743589744,3930.76923076923,3989.23076923077,3849.74358974359,4552.82051282051,4445.64102564103,4319.48717948718,4481.53846153846,4718.46153846154,4128.71794871795,4247.17948717949,4212.82051282051,4036.41025641026,4218.97435897436,1664,1695,66.591,66.4555511474609,0,0,0,0,2/8/2015 6:19:51 AM,
13,0,437,4363.07692307692,3928.20512820513,3997.4358974359,3844.61538461539,4540,4427.17948717949,4319.48717948718,4471.28205128205,4690.76923076923,4123.07692307692,4252.82051282051,4204.61538461538,4030.76923076923,4244.61538461538,1665,1697,66.6,66.4555511474609,0,0,0,0,2/8/2015 6:19:51 AM,
14,0,432,4366.66666666667,3928.71794871795,4002.5641025641,3851.79487179487,4529.74358974359,4436.92307692308,4320,4474.35897435897,4716.41025641026,4146.15384615385,4263.58974358974,4217.94871794872,4040,4221.02564102564,1665,1695,66.609,66.5806579589844,0,0,0,0,2/8/2015 6:19:51 AM,
15,0,452,4380.51282051282,3929.23076923077,3997.94871794872,3847.69230769231,4543.58974358974,4465.12820512821,4319.48717948718,4493.33333333333,4756.92307692308,4163.58974358974,4261.02564102564,4228.71794871795,4038.97435897436,4215.38461538462,1664,1696,66.619,66.5806579589844,0,0,0,0,2/8/2015 6:19:51 AM,
16,0,0,4382.05128205128,3926.66666666667,3992.30769230769,3841.53846153846,4541.53846153846,4456.41025641026,4319.48717948718,4510.25641025641,4751.79487179487,4151.28205128205,4243.58974358974,4224.61538461538,4026.15384615385,4227.17948717949,1666,1694,66.628,66.5806579589844,0,0,0,0,2/8/2015 6:19:51 AM,
17,0,0,4371.79487179487,3924.61538461539,3990.76923076923,3850.76923076923,4519.48717948718,4444.10256410256,4320,4510.25641025641,4739.48717948718,4137.94871794872,4248.20512820513,4225.12820512821,4033.84615384615,4226.66666666667,1664,1694,66.633,66.5806579589844,0,0,0,0,2/8/2015 6:19:51 AM,
18,0,0,4374.8717948718,3931.28205128205,3990.25641025641,3853.84615384615,4524.61538461538,4452.82051282051,4319.48717948718,4508.20512820513,4749.23076923077,4140.51282051282,4269.74358974359,4227.17948717949,4054.35897435898,4241.02564102564,1665,1694,66.638,66.611930847168,0,0,0,0,2/8/2015 6:19:51 AM,
19,0,0,4381.02564102564,3940,3986.15384615385,3848.71794871795,4547.17948717949,4445.12820512821,4318.46153846154,4509.74358974359,4751.79487179487,4141.53846153846,4267.17948717949,4218.46153846154,4049.23076923077,4256.92307692308,1665,1692,66.647,66.611930847168,0,0,0,0,2/8/2015 6:19:51 AM,
20,0,0,4377.94871794872,3942.05128205128,3981.02564102564,3852.82051282051,4544.61538461538,4448.20512820513,4317.94871794872,4508.20512820513,4742.05128205128,4131.79487179487,4253.84615384615,4215.89743589744,4033.84615384615,4236.41025641026,1666,1692,66.655,66.611930847168,0,0,0,0,2/8/2015 6:19:51 AM,
21,0,0,4377.4358974359,3940,3977.94871794872,3860.51282051282,4530.25641025641,4465.12820512821,4317.94871794872,4507.69230769231,4727.69230769231,4137.4358974359,4261.53846153846,4220.51282051282,4042.05128205128,4221.53846153846,1665,1693,66.663,66.611930847168,0,0,0,0,2/8/2015 6:19:51 AM,
22,0,0,4376.92307692308,3931.79487179487,3973.84615384615,3851.28205128205,4532.82051282051,4446.15384615385,4317.94871794872,4503.58974358974,4716.41025641026,4153.84615384615,4264.10256410256,4222.05128205128,4049.74358974359,4208.71794871795,1665,1695,66.671,66.611930847168,0,0,0,0,2/8/2015 6:19:51 AM,
23,0,0,4372.30769230769,3922.05128205128,3971.28205128205,3837.94871794872,4521.53846153846,4431.79487179487,4317.94871794872,4491.79487179487,4718.46153846154,4144.10256410256,4242.05128205128,4230.76923076923,4028.71794871795,4174.35897435897,1665,1694,66.678,66.611930847168,0,0,0,0,2/8/2015 6:19:51 AM,
24,0,0,4377.94871794872,3925.12820512821,3980,3849.74358974359,4507.17948717949,4465.64102564103,4317.94871794872,4489.74358974359,4729.74358974359,4132.30769230769,4234.8717948718,4234.35897435897,4014.35897435898,4182.5641025641,1665,1695,66.686,66.611930847168,0,0,0,0,2/8/2015 6:19:51 AM,
25,0,0,4372.30769230769,3929.74358974359,3990.76923076923,3866.66666666667,4530.76923076923,4479.48717948718,4317.94871794872,4494.8717948718,4738.97435897436,4141.02564102564,4250.25641025641,4222.05128205128,4033.33333333333,4224.61538461538,1666,1695,66.694,66.611930847168,0,0,0,0,2/8/2015 6:19:51 AM,
26,0,0,4349.74358974359,3927.69230769231,3991.79487179487,3863.58974358974,4544.10256410256,4457.94871794872,4317.94871794872,4494.35897435897,4751.28205128205,4142.05128205128,4253.33333333333,4213.84615384615,4051.79487179487,4223.07692307692,1665,1696,66.702,66.611930847168,0,0,0,0,2/8/2015 6:19:51 AM,
27,0,0,4364.10256410256,3936.41025641026,3991.28205128205,3855.89743589744,4523.58974358974,4461.02564102564,4317.94871794872,4490.25641025641,4755.89743589744,4140,4248.71794871795,4226.15384615385,4045.12820512821,4183.07692307692,1665,1694,66.71,66.611930847168,0,0,0,0,2/8/2015 6:19:51 AM,
28,0,0,4400.51282051282,3944.61538461539,3995.89743589744,3864.61538461539,4526.15384615385,4461.02564102564,4317.94871794872,4483.58974358974,4737.94871794872,4151.79487179487,4249.23076923077,4238.97435897436,4033.33333333333,4177.94871794872,1664,1695,66.718,66.611930847168,0,0,0,0,2/8/2015 6:19:51 AM,
29,0,0,4398.97435897436,3931.28205128205,3992.82051282051,3867.69230769231,4550.76923076923,4442.05128205128,4317.94871794872,4476.92307692308,4717.94871794872,4152.30769230769,4247.17948717949,4229.74358974359,4033.33333333333,4210.76923076923,1664,1694,66.724,66.611930847168,0,0,0,0,2/8/2015 6:19:51 AM,
30,0,0,4376.92307692308,3920,3985.64102564103,3858.97435897436,4537.94871794872,4454.8717948718,4317.94871794872,4478.97435897436,4716.92307692308,4144.61538461538,4246.66666666667,4212.30769230769,4040.51282051282,4229.23076923077,1664,1693,66.733,66.7057647705078,0,0,0,0,2/8/2015 6:19:51 AM,
31,0,0,4382.5641025641,3933.33333333333,3986.15384615385,3864.61538461539,4514.8717948718,4483.58974358974,4317.94871794872,4482.5641025641,4727.69230769231,4141.53846153846,4249.23076923077,4214.8717948718,4048.71794871795,4207.17948717949,1664,1691,66.741,66.7057647705078,0,0,0,0,2/8/2015 6:19:51 AM,
32,0,0,4394.8717948718,3944.61538461539,3988.71794871795,3870.76923076923,4531.79487179487,4472.30769230769,4317.94871794872,4469.74358974359,4712.30769230769,4126.66666666667,4250.25641025641,4226.66666666667,4040,4178.97435897436,1664,1691,66.748,66.7057647705078,0,0,0,0,2/8/2015 6:19:51 AM,
33,0,0,4376.92307692308,3933.33333333333,3990.25641025641,3861.02564102564,4546.15384615385,4444.61538461538,4317.94871794872,4456.92307692308,4690.76923076923,4123.07692307692,4246.15384615385,4224.61538461538,4020.51282051282,4199.48717948718,1663,1692,66.756,66.7057647705078,0,0,0,0,2/8/2015 6:19:51 AM,
34,0,0,4361.53846153846,3924.10256410256,3989.74358974359,3858.97435897436,4527.69230769231,4445.64102564103,4317.94871794872,4463.07692307692,4696.41025641026,4138.97435897436,4236.92307692308,4217.94871794872,4024.61538461539,4219.48717948718,1664,1693,66.764,66.7057647705078,0,0,0,0,2/8/2015 6:19:51 AM,
35,0,0,4377.4358974359,3924.61538461539,3985.64102564103,3866.15384615385,4515.89743589744,4457.4358974359,4317.94871794872,4473.33333333333,4704.61538461539,4142.5641025641,4237.4358974359,4214.35897435897,4040.51282051282,4202.5641025641,1663,1694,66.772,66.7057647705078,0,0,0,0,2/8/2015 6:19:51 AM,
36,0,0,4394.35897435897,3927.69230769231,3986.66666666667,3867.17948717949,4534.8717948718,4475.38461538462,4317.94871794872,4481.02564102564,4723.07692307692,4133.84615384615,4250.76923076923,4217.94871794872,4036.41025641026,4205.64102564103,1664,1692,66.78,66.7057647705078,0,0,0,0,2/8/2015 6:19:51 AM,
37,0,0,4387.69230769231,3930.25641025641,3990.25641025641,3864.10256410256,4548.71794871795,4492.82051282051,4317.94871794872,4493.84615384615,4757.4358974359,4142.05128205128,4257.94871794872,4226.66666666667,4034.35897435898,4222.05128205128,1663,1694,66.787,66.7057647705078,0,0,0,0,2/8/2015 6:19:51 AM,
38,0,0,4380,3929.23076923077,3987.17948717949,3863.07692307692,4535.89743589744,4490.25641025641,4317.94871794872,4493.33333333333,4750.76923076923,4143.58974358974,4254.8717948718,4222.5641025641,4037.94871794872,4203.07692307692,1664,1692,66.796,66.7057647705078,0,0,0,0,2/8/2015 6:19:51 AM,
39,0,0,4382.5641025641,3922.5641025641,3987.17948717949,3865.12820512821,4530.25641025641,4472.30769230769,4317.94871794872,4477.4358974359,4709.23076923077,4123.07692307692,4251.28205128205,4215.89743589744,4023.07692307692,4172.82051282051,1664,1693,66.804,66.7057647705078,0,0,0,0,2/8/2015 6:19:51 AM,
40,0,0,4382.05128205128,3922.5641025641,3988.20512820513,3869.74358974359,4545.12820512821,4452.82051282051,4317.94871794872,4477.94871794872,4708.71794871795,4128.20512820513,4249.23076923077,4219.48717948718,4023.07692307692,4177.94871794872,1664,1693,66.811,66.7057647705078,0,0,0,0,2/8/2015 6:19:51 AM,
41,0,0,4383.07692307692,3927.17948717949,3982.05128205128,3862.5641025641,4553.33333333333,4461.53846153846,4317.94871794872,4493.33333333333,4733.84615384615,4155.89743589744,4244.10256410256,4217.94871794872,4045.12820512821,4213.33333333333,1663,1693,66.819,66.7057647705078,0,0,0,0,2/8/2015 6:19:51 AM,
42,0,0,4384.10256410256,3929.74358974359,3990.25641025641,3859.48717948718,4535.89743589744,4488.20512820513,4317.94871794872,4490.25641025641,4737.94871794872,4155.89743589744,4241.53846153846,4218.46153846154,4045.64102564103,4227.17948717949,1664,1693,66.827,66.7057647705078,0,0,0,0,2/8/2015 6:19:51 AM,
43,0,0,4375.38461538462,3925.64102564103,4007.69230769231,3871.79487179487,4513.33333333333,4478.97435897436,4317.94871794872,4474.8717948718,4722.5641025641,4132.82051282051,4256.41025641026,4236.41025641026,4029.74358974359,4204.10256410256,1664,1692,66.835,66.7057647705078,0,0,0,0,2/8/2015 6:19:51 AM,
44,0,0,4377.94871794872,3913.33333333333,3997.4358974359,3873.84615384615,4526.15384615385,4442.5641025641,4317.94871794872,4466.15384615385,4707.17948717949,4133.84615384615,4275.38461538462,4232.30769230769,4034.35897435898,4214.35897435897,1663,1694,66.843,66.7057647705078,0,0,0,0,2/8/2015 6:19:51 AM,
45,0,0,4397.4358974359,3915.38461538462,3983.58974358974,3864.61538461539,4563.07692307692,4457.94871794872,4317.94871794872,4468.71794871795,4718.46153846154,4147.17948717949,4261.53846153846,4211.28205128205,4047.69230769231,4233.33333333333,1664,1694,66.85,66.7057647705078,0,0,0,0,2/8/2015 6:19:51 AM,
46,0,0,4403.07692307692,3930.76923076923,3997.94871794872,3862.05128205128,4561.53846153846,4504.10256410256,4317.94871794872,4477.94871794872,4725.12820512821,4137.94871794872,4239.48717948718,4223.07692307692,4041.02564102564,4198.46153846154,1664,1694,66.858,66.8308715820313,0,0,0,0,2/8/2015 6:19:51 AM,
47,0,0,4393.84615384615,3930.25641025641,4009.74358974359,3869.74358974359,4533.84615384615,4487.69230769231,4317.94871794872,4486.66666666667,4704.10256410256,4138.46153846154,4248.71794871795,4238.97435897436,4029.74358974359,4193.33333333333,1664,1694,66.865,66.8308715820313,0,0,0,0,2/8/2015 6:19:51 AM,
48,0,0,4397.4358974359,3927.17948717949,4003.07692307692,3885.64102564103,4545.12820512821,4457.94871794872,4317.94871794872,4492.30769230769,4720.51282051282,4158.46153846154,4268.20512820513,4231.28205128205,4037.4358974359,4233.33333333333,1664,1694,66.874,66.8308715820313,0,0,0,0,2/8/2015 6:19:51 AM,
49,0,0,4401.02564102564,3941.02564102564,4001.02564102564,3888.71794871795,4565.64102564103,4491.28205128205,4317.94871794872,4495.38461538462,4770.76923076923,4166.66666666667,4271.79487179487,4228.20512820513,4049.23076923077,4226.66666666667,1665,1693,66.882,66.8308715820313,0,0,0,0,2/8/2015 6:19:51 AM,
50,0,0,4395.38461538462,3940.51282051282,4006.66666666667,3885.64102564103,4537.94871794872,4518.97435897436,4317.94871794872,4495.38461538462,4762.5641025641,4152.30769230769,4268.20512820513,4235.38461538462,4045.12820512821,4200,1663,1694,66.89,66.8308715820313,0,0,0,0,2/8/2015 6:19:52 AM,
51,0,0,4396.41025641026,3928.20512820513,4008.71794871795,3892.30769230769,4528.20512820513,4476.41025641026,4317.94871794872,4497.4358974359,4730.25641025641,4138.97435897436,4266.15384615385,4243.07692307692,4044.10256410256,4186.66666666667,1665,1695,66.896,66.8308715820313,0,0,0,0,2/8/2015 6:19:52 AM,
52,0,0,4392.82051282051,3928.20512820513,4014.8717948718,3889.23076923077,4566.15384615385,4442.5641025641,4317.94871794872,4492.30769230769,4735.89743589744,4141.53846153846,4262.5641025641,4247.69230769231,4046.66666666667,4176.41025641026,1665,1693,66.905,66.8308715820313,0,0,0,0,2/8/2015 6:19:52 AM,
53,0,0,4388.20512820513,3926.15384615385,4016.41025641026,3878.97435897436,4574.8717948718,4464.10256410256,4317.94871794872,4475.38461538462,4729.74358974359,4150.25641025641,4260.51282051282,4237.94871794872,4033.33333333333,4207.17948717949,1664,1694,66.912,66.8308715820313,0,0,0,0,2/8/2015 6:19:52 AM,
54,0,0,4403.58974358974,3931.79487179487,4010.76923076923,3892.30769230769,4547.69230769231,4490.25641025641,4317.94871794872,4471.28205128205,4717.4358974359,4155.89743589744,4273.33333333333,4227.17948717949,4034.35897435898,4243.58974358974,1665,1693,66.92,66.8308715820313,0,0,0,0,2/8/2015 6:19:52 AM,
55,0,0,4419.48717948718,3946.15384615385,4010.25641025641,3903.07692307692,4549.23076923077,4495.89743589744,4317.94871794872,4478.46153846154,4732.82051282051,4152.30769230769,4282.5641025641,4232.82051282051,4050.25641025641,4233.33333333333,1664,1694,66.928,66.8308715820313,0,0,0,0,2/8/2015 6:19:52 AM,
56,0,0,4416.92307692308,3936.92307692308,4007.17948717949,3892.30769230769,4563.07692307692,4491.28205128205,4317.94871794872,4477.94871794872,4737.94871794872,4148.71794871795,4271.28205128205,4234.8717948718,4050.25641025641,4226.15384615385,1664,1693,66.936,66.8308715820313,0,0,0,0,2/8/2015 6:19:52 AM,
57,0,0,4419.48717948718,3919.48717948718,4001.02564102564,3890.25641025641,4549.74358974359,4487.17948717949,4317.94871794872,4481.02564102564,4732.82051282051,4151.28205128205,4263.07692307692,4230.76923076923,4041.02564102564,4230.76923076923,1664,1693,66.943,66.8308715820313,0,0,0,0,2/8/2015 6:19:52 AM,
58,0,0,4424.61538461538,3925.12820512821,4007.17948717949,3893.33333333333,4550.76923076923,4466.15384615385,4317.94871794872,4494.35897435897,4737.4358974359,4152.82051282051,4266.66666666667,4234.35897435897,4036.41025641026,4209.74358974359,1665,1693,66.951,66.8308715820313,0,0,0,0,2/8/2015 6:19:52 AM,
59,0,0,4412.30769230769,3929.23076923077,4016.41025641026,3886.66666666667,4558.97435897436,4442.5641025641,4317.94871794872,4489.23076923077,4723.58974358974,4156.92307692308,4265.12820512821,4235.89743589744,4029.74358974359,4190.76923076923,1664,1693,66.96,66.8308715820313,0,0,0,0,2/8/2015 6:19:52 AM,
60,0,0,4403.07692307692,3917.94871794872,4014.35897435898,3879.48717948718,4535.89743589744,4454.35897435897,4317.94871794872,4477.4358974359,4700,4152.30769230769,4264.10256410256,4236.41025641026,4028.71794871795,4201.02564102564,1665,1692,66.968,66.8308715820313,0,0,0,0,2/8/2015 6:19:52 AM,
61,0,0,4416.92307692308,3918.97435897436,4010.76923076923,3888.20512820513,4522.5641025641,4484.10256410256,4317.94871794872,4485.64102564103,4720,4140,4269.74358974359,4239.48717948718,4034.8717948718,4213.33333333333,1665,1692,66.976,66.8308715820313,0,0,0,0,2/8/2015 6:19:52 AM,
62,0,0,4430.76923076923,3933.84615384615,4013.33333333333,3904.61538461539,4546.66666666667,4485.64102564103,4317.94871794872,4496.41025641026,4747.69230769231,4141.02564102564,4266.66666666667,4234.35897435897,4031.28205128205,4214.8717948718,1665,1692,66.983,66.9559783935547,0,0,0,0,2/8/2015 6:19:52 AM,
63,0,0,4419.48717948718,3935.38461538462,4016.41025641026,3903.58974358974,4567.17948717949,4471.28205128205,4317.94871794872,4491.79487179487,4742.05128205128,4152.82051282051,4262.05128205128,4233.33333333333,4027.17948717949,4196.41025641026,1665,1692,66.99,66.9559783935547,0,0,0,0,2/8/2015 6:19:52 AM,
64,0,455,4409.74358974359,3922.05128205128,4020.51282051282,3893.33333333333,4552.82051282051,4476.92307692308,4317.94871794872,4488.20512820513,4740.51282051282,4156.41025641026,4271.28205128205,4244.61538461538,4035.89743589744,4186.15384615385,1665,1692,67,66.9559783935547,0,0,0,0,2/8/2015 6:19:52 AM,
65,0,442,4424.10256410256,3927.69230769231,4025.12820512821,3896.41025641026,4537.94871794872,4477.94871794872,4317.94871794872,4490.25641025641,4754.8717948718,4153.33333333333,4284.10256410256,4249.74358974359,4048.71794871795,4210.25641025641,1664,1691,67.008,66.9559783935547,0,0,0,0,2/8/2015 6:19:52 AM,
66,0,462,4431.79487179487,3943.07692307692,4030.76923076923,3897.4358974359,4540,4478.46153846154,4317.94871794872,4491.79487179487,4751.28205128205,4149.74358974359,4282.5641025641,4250.25641025641,4043.58974358974,4208.20512820513,1666,1690,67.016,66.9559783935547,0,0,0,0,2/8/2015 6:19:52 AM,
67,0,494,4411.28205128205,3929.74358974359,4022.05128205128,3892.30769230769,4553.33333333333,4492.30769230769,4317.94871794872,4492.30769230769,4730.76923076923,4137.4358974359,4261.53846153846,4248.20512820513,4019.48717948718,4187.69230769231,1665,1691,67.023,66.9559783935547,0,0,0,0,2/8/2015 6:19:52 AM,
68,0,474,4406.66666666667,3920,4006.66666666667,3904.10256410256,4566.15384615385,4479.48717948718,4317.94871794872,4487.69230769231,4721.02564102564,4137.4358974359,4258.46153846154,4236.41025641026,4022.05128205128,4205.64102564103,1666,1689,67.03,66.9559783935547,0,0,0,0,2/8/2015 6:19:52 AM,
69,0,463,4427.69230769231,3928.71794871795,4008.71794871795,3904.61538461539,4542.5641025641,4449.23076923077,4317.94871794872,4470.25641025641,4709.23076923077,4150.76923076923,4271.79487179487,4230.25641025641,4041.53846153846,4214.35897435897,1664,1690,67.038,66.9559783935547,0,0,0,0,2/8/2015 6:19:52 AM,
70,0,481,4418.97435897436,3916.41025641026,4009.23076923077,3876.41025641026,4518.46153846154,4443.07692307692,4317.94871794872,4461.02564102564,4692.30769230769,4151.79487179487,4265.12820512821,4230.76923076923,4025.12820512821,4206.15384615385,1665,1690,67.046,66.9559783935547,0,0,0,0,2/8/2015 6:19:52 AM,
71,0,0,4404.10256410256,3911.28205128205,4002.5641025641,3875.38461538462,4546.66666666667,4458.97435897436,4317.94871794872,4469.74358974359,4711.28205128205,4148.20512820513,4266.66666666667,4227.17948717949,4018.46153846154,4236.41025641026,1665,1689,67.055,66.9559783935547,0,0,0,0,2/8/2015 6:19:52 AM,
72,0,411,4425.12820512821,3942.05128205128,4013.33333333333,3907.69230769231,4570.25641025641,4479.48717948718,4317.94871794872,4479.48717948718,4751.79487179487,4151.79487179487,4289.23076923077,4233.84615384615,4051.79487179487,4251.28205128205,1664,1691,67.063,66.9559783935547,0,0,0,0,2/8/2015 6:19:52 AM,
73,0,426,4438.46153846154,3949.23076923077,4019.48717948718,3917.4358974359,4538.97435897436,4497.4358974359,4317.94871794872,4476.41025641026,4752.30769230769,4156.92307692308,4284.61538461538,4245.64102564103,4057.4358974359,4212.82051282051,1665,1689,67.07,66.9559783935547,0,0,0,0,2/8/2015 6:19:52 AM,
74,0,432,4417.4358974359,3924.10256410256,4006.15384615385,3907.69230769231,4532.30769230769,4490.25641025641,4317.94871794872,4472.82051282051,4725.12820512821,4154.35897435897,4270.76923076923,4239.48717948718,4037.94871794872,4210.76923076923,1665,1690,67.078,66.9559783935547,0,0,0,0,2/8/2015 6:19:52 AM,
75,0,452,4413.33333333333,3926.66666666667,4004.10256410256,3910.76923076923,4570.25641025641,4457.94871794872,4317.94871794872,4473.33333333333,4730.25641025641,4145.64102564103,4281.02564102564,4229.23076923077,4047.17948717949,4227.17948717949,1665,1690,67.085,66.9559783935547,0,0,0,0,2/8/2015 6:19:52 AM,
76,0,431,4418.97435897436,3928.71794871795,4012.30769230769,3896.92307692308,4543.58974358974,4441.02564102564,4317.94871794872,4476.92307692308,4741.53846153846,4134.8717948718,4277.94871794872,4232.30769230769,4038.46153846154,4185.64102564103,1664,1690,67.093,66.9559783935547,0,0,0,0,2/8/2015 6:19:52 AM,
77,0,437,4393.33333333333,3895.38461538462,4005.64102564103,3877.4358974359,4500,4449.23076923077,4317.94871794872,4481.02564102564,4721.02564102564,4137.4358974359,4255.38461538462,4236.92307692308,4003.58974358974,4168.20512820513,1665,1689,67.101,66.9559783935547,0,0,0,0,2/8/2015 6:19:52 AM,
78,0,432,4385.64102564103,3887.69230769231,3994.8717948718,3894.8717948718,4534.35897435897,4459.48717948718,4317.94871794872,4483.58974358974,4722.5641025641,4148.20512820513,4257.4358974359,4231.79487179487,4003.58974358974,4224.61538461538,1664,1690,67.109,67.0810852050781,0,0,0,0,2/8/2015 6:19:52 AM,
79,0,452,4424.61538461538,3917.4358974359,3996.41025641026,3917.4358974359,4570.25641025641,4466.66666666667,4317.94871794872,4484.10256410256,4751.28205128205,4146.66666666667,4273.33333333333,4221.02564102564,4033.84615384615,4263.58974358974,1665,1690,67.117,67.0810852050781,0,0,0,0,2/8/2015 6:19:52 AM,
80,0,431,4449.74358974359,3932.82051282051,4003.07692307692,3909.74358974359,4546.15384615385,4477.4358974359,4317.94871794872,4480.51282051282,4743.58974358974,4145.12820512821,4273.33333333333,4220,4050.25641025641,4245.12820512821,1664,1691,67.125,67.0810852050781,0,0,0,0,2/8/2015 6:19:52 AM,
81,0,437,4438.97435897436,3923.58974358974,4007.17948717949,3906.15384615385,4524.10256410256,4479.48717948718,4317.94871794872,4473.84615384615,4716.92307692308,4152.82051282051,4263.07692307692,4229.23076923077,4038.97435897436,4223.07692307692,1664,1691,67.133,67.0810852050781,0,0,0,0,2/8/2015 6:19:52 AM,
82,0,432,4426.66666666667,3911.28205128205,4008.71794871795,3913.84615384615,4526.66666666667,4454.8717948718,4317.94871794872,4472.30769230769,4712.30769230769,4155.38461538462,4261.02564102564,4236.92307692308,4020.51282051282,4202.5641025641,1663,1691,67.141,67.1123657226563,0,0,0,0,2/8/2015 6:19:52 AM,
83,0,452,4430.25641025641,3911.28205128205,4006.15384615385,3910.76923076923,4529.23076923077,4451.28205128205,4317.94871794872,4471.79487179487,4719.48717948718,4149.23076923077,4277.94871794872,4233.84615384615,4024.10256410256,4199.48717948718,1663,1693,67.148,67.1123657226563,0,0,0,0,2/8/2015 6:19:52 AM,
84,0,431,4432.30769230769,3923.07692307692,4005.64102564103,3915.38461538462,4538.97435897436,4470.76923076923,4317.94871794872,4472.82051282051,4731.79487179487,4152.82051282051,4288.71794871795,4226.15384615385,4043.07692307692,4236.92307692308,1663,1693,67.155,67.1123657226563,0,0,0,0,2/8/2015 6:19:52 AM,
85,0,437,4423.58974358974,3920.51282051282,4016.92307692308,3925.12820512821,4551.79487179487,4444.61538461538,4318.46153846154,4483.58974358974,4750.76923076923,4161.53846153846,4281.02564102564,4225.64102564103,4044.10256410256,4251.28205128205,1662,1693,67.163,67.1123657226563,0,0,0,0,2/8/2015 6:19:52 AM,
86,0,432,4428.71794871795,3907.17948717949,4026.15384615385,3921.53846153846,4560.51282051282,4428.20512820513,4317.94871794872,4489.23076923077,4761.02564102564,4161.53846153846,4274.35897435897,4236.92307692308,4031.28205128205,4227.17948717949,1663,1693,67.171,67.1123657226563,0,0,0,0,2/8/2015 6:19:52 AM,
87,0,452,4446.15384615385,3906.15384615385,4011.28205128205,3914.8717948718,4554.8717948718,4462.5641025641,4317.94871794872,4478.46153846154,4748.71794871795,4155.38461538462,4269.74358974359,4233.84615384615,4031.79487179487,4232.30769230769,1662,1693,67.18,67.1123657226563,0,0,0,0,2/8/2015 6:19:52 AM,
88,0,431,4438.97435897436,3913.33333333333,3994.35897435898,3915.38461538462,4533.33333333333,4467.69230769231,4318.97435897436,4473.33333333333,4731.28205128205,4146.66666666667,4270.25641025641,4215.38461538462,4038.97435897436,4238.97435897436,1663,1692,67.188,67.1123657226563,0,0,0,0,2/8/2015 6:19:52 AM,
89,0,437,4417.94871794872,3913.33333333333,3999.48717948718,3914.8717948718,4522.5641025641,4442.05128205128,4315.89743589744,4477.94871794872,4736.92307692308,4147.69230769231,4268.20512820513,4222.05128205128,4029.23076923077,4203.58974358974,1662,1692,67.196,67.1123657226563,0,0,0,0,2/8/2015 6:19:52 AM,
90,0,432,4419.48717948718,3897.4358974359,4007.17948717949,3911.79487179487,4515.38461538462,4453.84615384615,4310.25641025641,4478.97435897436,4741.53846153846,4152.30769230769,4265.64102564103,4236.92307692308,4013.84615384615,4189.74358974359,1663,1693,67.203,67.1123657226563,0,0,0,0,2/8/2015 6:19:52 AM,
91,0,452,4435.89743589744,3886.15384615385,4001.53846153846,3911.28205128205,4525.12820512821,4468.71794871795,4312.30769230769,4468.71794871795,4715.89743589744,4153.33333333333,4271.28205128205,4226.15384615385,4021.53846153846,4221.53846153846,1662,1692,67.21,67.1123657226563,0,0,0,0,2/8/2015 6:19:52 AM,
92,0,431,4443.58974358974,3904.10256410256,3999.48717948718,3910.25641025641,4552.30769230769,4457.4358974359,4318.46153846154,4465.64102564103,4715.38461538462,4153.33333333333,4283.58974358974,4221.02564102564,4044.10256410256,4232.30769230769,1663,1693,67.218,67.1123657226563,0,0,0,0,2/8/2015 6:19:52 AM,
93,0,437,4443.07692307692,3920,4008.71794871795,3913.84615384615,4548.20512820513,4459.48717948718,4319.48717948718,4468.71794871795,4755.89743589744,4152.30769230769,4281.02564102564,4235.89743589744,4040,4210.76923076923,1663,1692,67.226,67.1123657226563,0,0,0,0,2/8/2015 6:19:52 AM,
94,0,432,4450.76923076923,3915.89743589744,4014.8717948718,3923.58974358974,4535.89743589744,4461.53846153846,4317.4358974359,4464.61538461538,4748.20512820513,4153.33333333333,4272.82051282051,4240.51282051282,4021.53846153846,4217.94871794872,1662,1694,67.234,67.2061920166016,0,0,0,0,2/8/2015 6:19:52 AM,
95,0,452,4464.10256410256,3917.4358974359,4008.71794871795,3927.69230769231,4554.8717948718,4451.79487179487,4317.94871794872,4457.94871794872,4711.28205128205,4153.84615384615,4284.61538461538,4229.74358974359,4027.17948717949,4251.28205128205,1664,1694,67.242,67.2061920166016,0,0,0,0,2/8/2015 6:19:52 AM,
96,0,431,4454.8717948718,3919.48717948718,3994.8717948718,3920,4549.74358974359,4454.8717948718,4318.46153846154,4456.92307692308,4719.48717948718,4154.35897435897,4286.15384615385,4219.48717948718,4042.05128205128,4257.4358974359,1663,1694,67.25,67.2061920166016,0,0,0,0,2/8/2015 6:19:52 AM,
97,0,437,4434.35897435897,3909.74358974359,3990.76923076923,3912.82051282051,4519.48717948718,4461.02564102564,4317.94871794872,4458.97435897436,4734.35897435897,4150.76923076923,4268.20512820513,4213.84615384615,4035.38461538462,4249.74358974359,1663,1694,67.257,67.2061920166016,0,0,0,0,2/8/2015 6:19:52 AM,
98,0,432,4429.74358974359,3908.20512820513,3999.48717948718,3912.82051282051,4529.23076923077,4470.25641025641,4317.94871794872,4465.64102564103,4735.38461538462,4142.5641025641,4267.69230769231,4222.05128205128,4021.02564102564,4231.28205128205,1663,1694,67.265,67.2061920166016,0,0,0,0,2/8/2015 6:19:52 AM,
99,0,452,4433.84615384615,3913.33333333333,4008.71794871795,3913.33333333333,4542.5641025641,4485.64102564103,4317.94871794872,4480,4752.30769230769,4137.4358974359,4283.58974358974,4236.92307692308,4024.61538461539,4206.15384615385,1663,1693,67.273,67.2061920166016,0,0,0,0,2/8/2015 6:19:52 AM,
100,0,431,4445.12820512821,3911.28205128205,4007.17948717949,3928.20512820513,4538.97435897436,4471.79487179487,4317.94871794872,4487.17948717949,4753.33333333333,4144.10256410256,4283.07692307692,4229.74358974359,4037.94871794872,4212.30769230769,1663,1693,67.28,67.2061920166016,0,0,0,0,2/8/2015 6:19:52 AM,
101,0,437,4458.46153846154,3911.28205128205,3999.48717948718,3947.69230769231,4553.33333333333,4452.30769230769,4317.94871794872,4480,4737.4358974359,4154.35897435897,4278.46153846154,4215.89743589744,4044.10256410256,4227.17948717949,1664,1694,67.288,67.2061920166016,0,0,0,0,2/8/2015 6:19:52 AM,
102,0,432,4453.84615384615,3913.84615384615,3998.97435897436,3942.05128205128,4557.4358974359,4480,4317.94871794872,4477.94871794872,4746.15384615385,4152.82051282051,4285.12820512821,4224.61538461538,4045.12820512821,4218.46153846154,1663,1693,67.297,67.2061920166016,0,0,0,0,2/8/2015 6:19:52 AM,
103,0,452,4435.89743589744,3916.92307692308,4000.51282051282,3923.07692307692,4540.51282051282,4486.66666666667,4317.94871794872,4474.35897435897,4746.15384615385,4156.41025641026,4271.79487179487,4235.89743589744,4043.07692307692,4211.28205128205,1663,1693,67.305,67.2061920166016,0,0,0,0,2/8/2015 6:19:52 AM,
104,0,431,4429.74358974359,3912.82051282051,4000.51282051282,3921.53846153846,4540.51282051282,4450.25641025641,4317.94871794872,4461.53846153846,4718.46153846154,4163.07692307692,4264.61538461538,4232.30769230769,4029.74358974359,4201.53846153846,1665,1693,67.312,67.2061920166016,0,0,0,0,2/8/2015 6:19:52 AM,
105,0,437,4435.89743589744,3900,4003.07692307692,3926.15384615385,4535.89743589744,4454.35897435897,4317.94871794872,4460,4716.92307692308,4153.33333333333,4283.58974358974,4231.79487179487,4019.48717948718,4182.05128205128,1664,1695,67.321,67.2061920166016,0,0,0,0,2/8/2015 6:19:52 AM,
106,0,432,4446.15384615385,3899.48717948718,4004.61538461539,3927.17948717949,4524.61538461538,4487.69230769231,4317.94871794872,4475.38461538462,4746.15384615385,4146.66666666667,4286.15384615385,4232.30769230769,4034.35897435898,4203.58974358974,1666,1694,67.328,67.2061920166016,0,0,0,0,2/8/2015 6:19:52 AM,
107,0,452,4456.41025641026,3922.05128205128,4002.5641025641,3935.38461538462,4551.79487179487,4485.12820512821,4317.94871794872,4481.53846153846,4750.76923076923,4149.74358974359,4278.46153846154,4224.61538461538,4050.76923076923,4237.4358974359,1665,1696,67.334,67.2061920166016,0,0,0,0,2/8/2015 6:19:52 AM,
108,0,431,4463.58974358974,3934.35897435898,4005.12820512821,3938.46153846154,4581.02564102564,4466.15384615385,4317.94871794872,4472.82051282051,4734.35897435897,4143.07692307692,4278.97435897436,4230.25641025641,4038.97435897436,4225.64102564103,1667,1695,67.343,67.2061920166016,0,0,0,0,2/8/2015 6:19:52 AM,
109,0,437,4454.8717948718,3917.4358974359,4009.74358974359,3930.25641025641,4546.15384615385,4469.23076923077,4317.94871794872,4473.84615384615,4739.48717948718,4137.4358974359,4270.76923076923,4239.48717948718,4021.53846153846,4208.71794871795,1667,1694,67.351,67.2061920166016,0,0,0,0,2/8/2015 6:19:52 AM,
110,0,432,4440,3911.28205128205,4005.64102564103,3932.30769230769,4513.33333333333,4491.79487179487,4317.94871794872,4481.53846153846,4755.38461538462,4152.82051282051,4269.74358974359,4228.71794871795,4027.69230769231,4223.07692307692,1667,1694,67.36,67.331298828125,0,0,0,0,2/8/2015 6:19:52 AM,
111,0,452,4443.58974358974,3925.12820512821,4000,3941.02564102564,4534.35897435897,4490.76923076923,4317.94871794872,4476.92307692308,4742.05128205128,4160,4276.41025641026,4222.5641025641,4037.4358974359,4223.07692307692,1667,1693,67.368,67.331298828125,0,0,0,0,2/8/2015 6:19:52 AM,
112,0,431,4460.51282051282,3928.20512820513,4004.10256410256,3947.17948717949,4542.5641025641,4444.61538461538,4317.94871794872,4460.51282051282,4712.82051282051,4144.61538461538,4272.82051282051,4232.30769230769,4030.25641025641,4201.53846153846,1668,1693,67.375,67.331298828125,0,0,0,0,2/8/2015 6:19:52 AM,
113,0,437,4474.35897435897,3931.79487179487,4017.4358974359,3960,4532.30769230769,4440,4317.94871794872,4460,4711.28205128205,4134.35897435897,4278.97435897436,4235.89743589744,4033.33333333333,4223.07692307692,1668,1692,67.383,67.331298828125,0,0,0,0,2/8/2015 6:19:52 AM,
114,0,432,4479.48717948718,3943.07692307692,4023.58974358974,3962.5641025641,4539.48717948718,4493.33333333333,4317.94871794872,4475.89743589744,4735.38461538462,4135.89743589744,4288.71794871795,4233.84615384615,4047.17948717949,4256.41025641026,1668,1693,67.39,67.331298828125,0,0,0,0,2/8/2015 6:19:52 AM,
115,0,452,4476.41025641026,3933.84615384615,4011.28205128205,3941.53846153846,4547.17948717949,4506.15384615385,4317.94871794872,4471.79487179487,4737.94871794872,4137.94871794872,4281.53846153846,4233.33333333333,4040,4246.66666666667,1668,1692,67.397,67.331298828125,0,0,0,0,2/8/2015 6:19:52 AM,
116,0,431,4474.35897435897,3925.12820512821,4000,3940,4536.41025641026,4475.89743589744,4317.94871794872,4458.46153846154,4715.89743589744,4137.94871794872,4276.92307692308,4230.76923076923,4028.71794871795,4220,1667,1693,67.406,67.331298828125,0,0,0,0,2/8/2015 6:19:52 AM,
117,0,437,4469.74358974359,3938.46153846154,4012.30769230769,3970.25641025641,4528.20512820513,4457.94871794872,4317.94871794872,4457.94871794872,4712.30769230769,4134.35897435897,4274.35897435897,4234.8717948718,4027.17948717949,4186.15384615385,1667,1693,67.415,67.331298828125,0,0,0,0,2/8/2015 6:19:52 AM,
118,0,432,4458.97435897436,3934.8717948718,4023.07692307692,3973.84615384615,4532.30769230769,4451.28205128205,4318.46153846154,4458.46153846154,4726.15384615385,4135.38461538462,4269.74358974359,4236.41025641026,4021.02564102564,4186.15384615385,1665,1694,67.422,67.331298828125,0,0,0,0,2/8/2015 6:19:52 AM,
119,0,452,4466.66666666667,3921.02564102564,4012.82051282051,3946.66666666667,4537.4358974359,4462.5641025641,4318.46153846154,4456.41025641026,4734.35897435897,4143.07692307692,4277.4358974359,4227.17948717949,4030.25641025641,4249.74358974359,1665,1693,67.43,67.331298828125,0,0,0,0,2/8/2015 6:19:52 AM,
120,0,431,4484.61538461538,3934.35897435898,4000,3939.48717948718,4545.12820512821,4492.82051282051,4317.4358974359,4456.92307692308,4716.92307692308,4143.58974358974,4278.46153846154,4224.10256410256,4048.71794871795,4276.41025641026,1665,1693,67.438,67.331298828125,0,0,0,0,2/8/2015 6:19:52 AM,
121,0,437,4482.05128205128,3948.20512820513,4002.5641025641,3943.07692307692,4557.4358974359,4503.07692307692,4318.46153846154,4456.41025641026,4697.4358974359,4134.8717948718,4275.89743589744,4232.82051282051,4041.53846153846,4219.48717948718,1665,1692,67.446,67.331298828125,0,0,0,0,2/8/2015 6:19:52 AM,
122,0,432,4477.4358974359,3943.07692307692,4015.38461538462,3941.02564102564,4560.51282051282,4492.30769230769,4318.46153846154,4459.48717948718,4727.17948717949,4132.30769230769,4285.12820512821,4240,4032.82051282051,4196.92307692308,1665,1694,67.453,67.331298828125,0,0,0,0,2/8/2015 6:19:52 AM,
123,0,452,4483.58974358974,3941.53846153846,4016.41025641026,3955.38461538462,4535.89743589744,4478.46153846154,4313.84615384615,4460.51282051282,4754.35897435897,4142.05128205128,4281.53846153846,4238.46153846154,4043.58974358974,4216.92307692308,1665,1692,67.461,67.331298828125,0,0,0,0,2/8/2015 6:19:52 AM,
124,0,431,4475.89743589744,3940,4004.61538461539,3963.58974358974,4517.4358974359,4457.94871794872,4309.23076923077,4444.10256410256,4708.20512820513,4153.84615384615,4270.25641025641,4232.30769230769,4033.84615384615,4200,1664,1693,67.469,67.331298828125,0,0,0,0,2/8/2015 6:19:52 AM,
125,0,437,4468.20512820513,3937.94871794872,4005.12820512821,3947.17948717949,4529.74358974359,4452.82051282051,4313.33333333333,4434.35897435897,4685.12820512821,4153.84615384615,4273.33333333333,4231.28205128205,4015.89743589744,4202.05128205128,1665,1692,67.475,67.331298828125,0,0,0,0,2/8/2015 6:19:52 AM,
126,0,432,4492.30769230769,3956.92307692308,4013.84615384615,3950.25641025641,4558.97435897436,4474.8717948718,4318.46153846154,4452.30769230769,4750.25641025641,4148.20512820513,4289.23076923077,4236.92307692308,4039.48717948718,4258.97435897436,1663,1692,67.483,67.4564056396484,0,0,0,0,2/8/2015 6:19:52 AM,
127,0,452,4515.38461538462,3969.23076923077,4009.23076923077,3965.64102564103,4576.41025641026,4500.51282051282,4317.94871794872,4467.17948717949,4778.46153846154,4152.82051282051,4295.89743589744,4236.41025641026,4069.74358974359,4276.92307692308,1665,1693,67.491,67.4564056396484,0,0,0,0,2/8/2015 6:19:52 AM,
128,0,431,4505.12820512821,3960,4000,3961.02564102564,4553.84615384615,4496.92307692308,4317.4358974359,4454.35897435897,4743.58974358974,4149.74358974359,4273.84615384615,4233.84615384615,4050.76923076923,4221.53846153846,1664,1692,67.499,67.4564056396484,0,0,0,0,2/8/2015 6:19:52 AM,
0,0,455,4483.58974358974,3958.97435897436,4003.07692307692,3960.51282051282,4537.4358974359,4469.23076923077,4319.48717948718,4442.05128205128,4726.66666666667,4136.41025641026,4257.4358974359,4235.89743589744,4022.05128205128,4202.5641025641,1663,1693,67.506,67.4564056396484,0,0,0,0,2/8/2015 6:19:52 AM,
1,0,442,4477.4358974359,3965.64102564103,4004.61538461539,3973.84615384615,4550.25641025641,4468.71794871795,4318.97435897436,4448.71794871795,4731.28205128205,4142.05128205128,4275.89743589744,4231.28205128205,4035.38461538462,4242.5641025641,1664,1692,67.515,67.4564056396484,0,0,0,0,2/8/2015 6:19:52 AM,
2,0,461,4479.48717948718,3962.5641025641,4003.58974358974,3976.92307692308,4548.71794871795,4498.97435897436,4317.94871794872,4452.30769230769,4730.76923076923,4155.38461538462,4290.25641025641,4236.41025641026,4048.71794871795,4232.82051282051,1664,1692,67.522,67.4564056396484,0,0,0,0,2/8/2015 6:19:52 AM,
3,0,494,4462.5641025641,3951.79487179487,4005.64102564103,3964.61538461539,4536.41025641026,4487.17948717949,4318.46153846154,4442.05128205128,4729.23076923077,4153.33333333333,4273.33333333333,4246.66666666667,4027.69230769231,4200,1663,1692,67.531,67.4564056396484,0,0,0,0,2/8/2015 6:19:52 AM,
4,0,474,4456.92307692308,3943.07692307692,4010.25641025641,3955.38461538462,4551.79487179487,4438.97435897436,4317.94871794872,4438.97435897436,4719.48717948718,4147.69230769231,4261.02564102564,4242.5641025641,4016.92307692308,4216.92307692308,1663,1692,67.539,67.4564056396484,0,0,0,0,2/8/2015 6:19:52 AM,
5,0,463,4488.20512820513,3949.74358974359,4009.74358974359,3969.23076923077,4562.5641025641,4434.35897435897,4317.94871794872,4442.5641025641,4694.35897435897,4150.76923076923,4265.64102564103,4232.82051282051,4032.82051282051,4236.41025641026,1663,1691,67.545,67.4564056396484,0,0,0,0,2/8/2015 6:19:52 AM,
6,0,481,4513.33333333333,3968.71794871795,3998.46153846154,3981.53846153846,4563.58974358974,4473.33333333333,4318.97435897436,4441.53846153846,4705.12820512821,4154.8717948718,4276.92307692308,4227.17948717949,4044.10256410256,4242.05128205128,1662,1694,67.553,67.4564056396484,0,0,0,0,2/8/2015 6:19:52 AM,
7,0,0,4511.79487179487,3980,3996.92307692308,3982.05128205128,4584.61538461538,4497.4358974359,4315.38461538462,4448.20512820513,4746.15384615385,4155.89743589744,4290.25641025641,4225.64102564103,4046.66666666667,4261.53846153846,1663,1692,67.562,67.4564056396484,0,0,0,0,2/8/2015 6:19:52 AM,
8,0,411,4504.10256410256,3974.8717948718,4004.61538461539,3987.17948717949,4584.61538461538,4494.35897435897,4311.28205128205,4460.51282051282,4747.17948717949,4153.84615384615,4285.64102564103,4228.71794871795,4043.07692307692,4245.64102564103,1662,1691,67.57,67.4564056396484,0,0,0,0,2/8/2015 6:19:52 AM,
9,0,426,4490.25641025641,3963.58974358974,3998.46153846154,3977.94871794872,4546.66666666667,4475.38461538462,4313.33333333333,4460.51282051282,4726.15384615385,4152.30769230769,4261.53846153846,4232.30769230769,4020,4197.4358974359,1663,1691,67.577,67.4564056396484,0,0,0,0,2/8/2015 6:19:52 AM,
10,0,432,4471.79487179487,3953.33333333333,3985.12820512821,3953.33333333333,4528.71794871795,4457.4358974359,4315.89743589744,4456.41025641026,4729.74358974359,4152.30769230769,4257.4358974359,4229.23076923077,4010.25641025641,4206.66666666667,1662,1691,67.585,67.4564056396484,0,0,0,0,2/8/2015 6:19:52 AM,
11,0,452,4474.8717948718,3954.8717948718,3990.25641025641,3953.33333333333,4550.76923076923,4457.94871794872,4314.35897435897,4462.05128205128,4736.41025641026,4150.25641025641,4280,4228.71794871795,4037.4358974359,4248.71794871795,1662,1692,67.592,67.4564056396484,0,0,0,0,2/8/2015 6:19:52 AM,
12,0,431,4482.5641025641,3966.15384615385,3997.94871794872,3974.8717948718,4555.38461538462,4465.12820512821,4314.35897435897,4460.51282051282,4738.46153846154,4153.33333333333,4286.15384615385,4231.28205128205,4048.71794871795,4239.48717948718,1663,1689,67.601,67.4564056396484,0,0,0,0,2/8/2015 6:19:52 AM,
13,0,437,4474.35897435897,3971.28205128205,3990.76923076923,3986.15384615385,4543.58974358974,4453.84615384615,4318.46153846154,4445.64102564103,4744.10256410256,4150.76923076923,4276.41025641026,4229.74358974359,4029.23076923077,4212.30769230769,1662,1690,67.61,67.5815124511719,0,0,0,0,2/8/2015 6:19:52 AM,
14,0,432,4467.17948717949,3957.4358974359,3993.84615384615,3986.15384615385,4550.76923076923,4432.30769230769,4319.48717948718,4440.51282051282,4723.07692307692,4134.8717948718,4281.02564102564,4229.74358974359,4024.10256410256,4213.33333333333,1662,1689,67.618,67.5815124511719,0,0,0,0,2/8/2015 6:19:52 AM,
15,0,452,4473.33333333333,3941.02564102564,4002.05128205128,3971.79487179487,4541.53846153846,4437.94871794872,4317.4358974359,4442.05128205128,4695.38461538462,4126.15384615385,4278.46153846154,4232.30769230769,4029.23076923077,4210.76923076923,1662,1692,67.626,67.5815124511719,0,0,0,0,2/8/2015 6:19:52 AM,
16,0,0,4477.4358974359,3951.79487179487,3992.30769230769,3960,4513.84615384615,4471.28205128205,4317.94871794872,4438.46153846154,4702.5641025641,4134.8717948718,4260.51282051282,4234.8717948718,4021.02564102564,4187.69230769231,1663,1691,67.633,67.5815124511719,0,0,0,0,2/8/2015 6:19:52 AM,
17,0,0,4466.66666666667,3963.07692307692,3985.64102564103,3963.58974358974,4524.10256410256,4480,4318.97435897436,4436.92307692308,4715.38461538462,4142.05128205128,4264.61538461538,4235.38461538462,4016.92307692308,4183.58974358974,1662,1693,67.641,67.61279296875,0,0,0,0,2/8/2015 6:19:52 AM,
18,0,0,4457.4358974359,3945.64102564103,4000,3963.58974358974,4553.84615384615,4454.8717948718,4317.94871794872,4446.66666666667,4716.92307692308,4140.51282051282,4275.89743589744,4235.89743589744,4014.35897435898,4203.07692307692,1663,1693,67.649,67.61279296875,0,0,0,0,2/8/2015 6:19:52 AM,
19,0,0,4470.76923076923,3935.89743589744,4003.07692307692,3967.69230769231,4560,4445.12820512821,4317.94871794872,4457.4358974359,4730.25641025641,4141.53846153846,4270.25641025641,4235.38461538462,4008.20512820513,4224.61538461538,1663,1693,67.656,67.61279296875,0,0,0,0,2/8/2015 6:19:52 AM,
20,0,0,4490.25641025641,3952.30769230769,3987.17948717949,3982.5641025641,4553.84615384615,4462.5641025641,4318.46153846154,4460.51282051282,4750.25641025641,4137.94871794872,4273.84615384615,4231.28205128205,4018.46153846154,4237.4358974359,1664,1692,67.664,67.61279296875,0,0,0,0,2/8/2015 6:19:52 AM,
21,0,0,4493.33333333333,3963.07692307692,3987.69230769231,3993.33333333333,4531.28205128205,4466.66666666667,4317.94871794872,4456.41025641026,4748.71794871795,4135.38461538462,4284.61538461538,4230.25641025641,4028.20512820513,4227.17948717949,1664,1690,67.672,67.61279296875,0,0,0,0,2/8/2015 6:19:52 AM,
22,0,0,4488.71794871795,3958.97435897436,4001.53846153846,3985.12820512821,4512.82051282051,4444.61538461538,4317.94871794872,4443.58974358974,4707.17948717949,4149.23076923077,4271.28205128205,4232.82051282051,4017.94871794872,4198.46153846154,1664,1692,67.678,67.61279296875,0,0,0,0,2/8/2015 6:19:52 AM,
23,0,0,4485.64102564103,3955.89743589744,4002.5641025641,3968.20512820513,4537.94871794872,4438.46153846154,4317.94871794872,4433.84615384615,4685.12820512821,4161.02564102564,4267.69230769231,4232.82051282051,4018.97435897436,4200,1665,1691,67.688,67.61279296875,0,0,0,0,2/8/2015 6:19:52 AM,
24,0,0,4493.84615384615,3961.02564102564,3998.97435897436,3977.94871794872,4558.97435897436,4459.48717948718,4317.94871794872,4439.48717948718,4724.61538461539,4148.71794871795,4288.71794871795,4242.5641025641,4033.84615384615,4233.84615384615,1664,1692,67.696,67.61279296875,0,0,0,0,2/8/2015 6:19:52 AM,
25,0,0,4502.05128205128,3969.74358974359,4007.69230769231,4004.10256410256,4540.51282051282,4463.07692307692,4317.94871794872,4448.20512820513,4752.30769230769,4132.82051282051,4284.61538461538,4254.35897435897,4031.28205128205,4241.02564102564,1664,1692,67.704,67.61279296875,0,0,0,0,2/8/2015 6:19:52 AM,
26,0,0,4491.79487179487,3958.97435897436,4005.64102564103,4001.53846153846,4528.71794871795,4443.07692307692,4317.94871794872,4442.5641025641,4717.94871794872,4136.41025641026,4261.02564102564,4244.61538461538,4014.8717948718,4210.76923076923,1664,1693,67.712,67.61279296875,0,0,0,0,2/8/2015 6:19:52 AM,
27,0,0,4487.69230769231,3941.53846153846,3991.79487179487,3982.5641025641,4541.53846153846,4444.10256410256,4317.94871794872,4436.41025641026,4697.4358974359,4141.53846153846,4263.07692307692,4236.92307692308,4012.30769230769,4202.05128205128,1665,1693,67.718,67.61279296875,0,0,0,0,2/8/2015 6:19:52 AM,
28,0,0,4493.33333333333,3946.15384615385,3993.33333333333,3987.17948717949,4545.64102564103,4455.38461538462,4317.94871794872,4441.53846153846,4720.51282051282,4135.89743589744,4278.46153846154,4241.53846153846,4019.48717948718,4228.20512820513,1665,1694,67.726,67.61279296875,0,0,0,0,2/8/2015 6:19:52 AM,
29,0,0,4482.05128205128,3953.33333333333,3991.79487179487,3994.35897435898,4535.89743589744,4457.4358974359,4317.94871794872,4444.10256410256,4721.02564102564,4131.79487179487,4276.41025641026,4225.64102564103,4019.48717948718,4247.17948717949,1665,1694,67.734,67.7066268920898,0,0,0,0,2/8/2015 6:19:52 AM,
30,0,0,4469.23076923077,3944.10256410256,3975.89743589744,3987.69230769231,4533.33333333333,4464.61538461538,4317.94871794872,4446.66666666667,4711.28205128205,4140.51282051282,4268.71794871795,4213.33333333333,4019.48717948718,4232.82051282051,1664,1694,67.742,67.7066268920898,0,0,0,0,2/8/2015 6:19:52 AM,
31,0,0,4469.74358974359,3940,3975.38461538462,3987.69230769231,4544.10256410256,4452.30769230769,4317.94871794872,4449.23076923077,4706.15384615385,4142.05128205128,4266.15384615385,4231.28205128205,4022.5641025641,4208.20512820513,1665,1694,67.751,67.7066268920898,0,0,0,0,2/8/2015 6:19:52 AM,
32,0,0,4468.71794871795,3943.58974358974,3982.05128205128,3993.33333333333,4546.15384615385,4423.07692307692,4317.94871794872,4441.53846153846,4694.8717948718,4134.8717948718,4262.05128205128,4240,4011.28205128205,4200.51282051282,1665,1692,67.759,67.7066268920898,0,0,0,0,2/8/2015 6:19:52 AM,
33,0,0,4476.92307692308,3941.02564102564,3976.41025641026,3985.12820512821,4527.17948717949,4440.51282051282,4317.94871794872,4442.5641025641,4710.25641025641,4145.64102564103,4266.66666666667,4230.25641025641,3997.4358974359,4213.84615384615,1664,1694,67.766,67.7066268920898,0,0,0,0,2/8/2015 6:19:52 AM,
34,0,0,4494.8717948718,3944.61538461539,3979.48717948718,3980.51282051282,4529.74358974359,4481.02564102564,4317.94871794872,4458.97435897436,4737.94871794872,4146.66666666667,4281.02564102564,4236.41025641026,4005.12820512821,4241.02564102564,1666,1693,67.773,67.7066268920898,0,0,0,0,2/8/2015 6:19:52 AM,
35,0,0,4496.41025641026,3951.28205128205,3987.17948717949,3994.35897435898,4545.12820512821,4469.74358974359,4317.94871794872,4459.48717948718,4726.66666666667,4126.66666666667,4280.51282051282,4236.92307692308,4023.07692307692,4247.17948717949,1665,1694,67.781,67.7066268920898,0,0,0,0,2/8/2015 6:19:52 AM,
36,0,0,4485.64102564103,3943.07692307692,3978.97435897436,4008.20512820513,4531.28205128205,4434.8717948718,4317.94871794872,4444.61538461538,4710.76923076923,4126.15384615385,4273.33333333333,4220,4029.23076923077,4233.84615384615,1665,1694,67.789,67.7066268920898,0,0,0,0,2/8/2015 6:19:52 AM,
37,0,0,4478.97435897436,3941.02564102564,3971.28205128205,4006.15384615385,4529.74358974359,4432.30769230769,4317.94871794872,4442.05128205128,4723.07692307692,4140.51282051282,4283.07692307692,4220,4022.05128205128,4232.30769230769,1665,1694,67.797,67.7066268920898,0,0,0,0,2/8/2015 6:19:52 AM,
38,0,0,4474.35897435897,3953.33333333333,3976.41025641026,3992.82051282051,4548.71794871795,4453.33333333333,4317.94871794872,4448.71794871795,4725.64102564103,4137.4358974359,4279.48717948718,4231.79487179487,4010.25641025641,4222.5641025641,1665,1693,67.805,67.7066268920898,0,0,0,0,2/8/2015 6:19:52 AM,
39,0,0,4472.82051282051,3954.35897435898,3985.12820512821,3987.17948717949,4536.41025641026,4458.46153846154,4317.94871794872,4453.84615384615,4717.94871794872,4133.84615384615,4258.97435897436,4235.89743589744,4009.74358974359,4205.12820512821,1665,1693,67.812,67.7066268920898,0,0,0,0,2/8/2015 6:19:52 AM,
40,0,0,4471.79487179487,3943.07692307692,3988.20512820513,3992.30769230769,4515.89743589744,4439.48717948718,4317.94871794872,4450.25641025641,4723.58974358974,4141.53846153846,4261.02564102564,4232.30769230769,4012.82051282051,4211.79487179487,1666,1693,67.82,67.7066268920898,0,0,0,0,2/8/2015 6:19:52 AM,
41,0,0,4463.07692307692,3938.46153846154,3980.51282051282,3996.92307692308,4520.51282051282,4442.05128205128,4317.94871794872,4443.07692307692,4726.15384615385,4134.8717948718,4273.33333333333,4222.5641025641,4007.69230769231,4212.30769230769,1665,1693,67.828,67.7066268920898,0,0,0,0,2/8/2015 6:19:52 AM,
42,0,0,4457.94871794872,3942.5641025641,3981.53846153846,3990.76923076923,4525.64102564103,4457.4358974359,4317.94871794872,4444.10256410256,4723.58974358974,4122.5641025641,4272.82051282051,4215.89743589744,4004.10256410256,4195.38461538462,1664,1693,67.837,67.7066268920898,0,0,0,0,2/8/2015 6:19:52 AM,
43,0,0,4464.61538461538,3950.76923076923,3989.23076923077,3988.20512820513,4538.97435897436,4445.12820512821,4317.94871794872,4442.05128205128,4722.05128205128,4121.53846153846,4273.84615384615,4222.5641025641,4006.15384615385,4220,1664,1694,67.845,67.7066268920898,0,0,0,0,2/8/2015 6:19:52 AM,
44,0,0,4477.4358974359,3958.46153846154,3989.23076923077,4000.51282051282,4548.20512820513,4438.46153846154,4317.94871794872,4426.66666666667,4710.25641025641,4121.02564102564,4268.20512820513,4234.35897435897,4002.5641025641,4244.10256410256,1665,1693,67.852,67.7066268920898,0,0,0,0,2/8/2015 6:19:52 AM,
45,0,0,4479.48717948718,3958.97435897436,3994.8717948718,4009.23076923077,4522.05128205128,4458.97435897436,4317.94871794872,4422.5641025641,4698.46153846154,4123.07692307692,4257.94871794872,4235.38461538462,4001.02564102564,4233.84615384615,1664,1694,67.86,67.8317337036133,0,0,0,0,2/8/2015 6:19:52 AM,
46,0,0,4486.66666666667,3956.92307692308,4003.58974358974,4002.05128205128,4518.46153846154,4454.35897435897,4317.94871794872,4433.33333333333,4705.64102564103,4134.35897435897,4270.25641025641,4232.30769230769,4014.35897435898,4246.66666666667,1664,1693,67.867,67.8317337036133,0,0,0,0,2/8/2015 6:19:52 AM,
47,0,0,4505.64102564103,3958.97435897436,3998.97435897436,3996.41025641026,4554.35897435897,4438.46153846154,4317.94871794872,4431.79487179487,4714.35897435897,4139.48717948718,4287.69230769231,4232.82051282051,4013.33333333333,4249.74358974359,1664,1694,67.875,67.8317337036133,0,0,0,0,2/8/2015 6:19:52 AM,
48,0,0,4499.48717948718,3958.46153846154,3983.58974358974,4001.02564102564,4555.38461538462,4446.15384615385,4317.94871794872,4428.20512820513,4711.28205128205,4127.17948717949,4278.46153846154,4234.35897435897,3990.25641025641,4204.61538461538,1664,1692,67.883,67.8317337036133,0,0,0,0,2/8/2015 6:19:52 AM,
49,0,0,4476.92307692308,3951.28205128205,3976.41025641026,3998.97435897436,4522.5641025641,4431.79487179487,4317.94871794872,4432.82051282051,4713.33333333333,4117.94871794872,4266.15384615385,4234.35897435897,3987.69230769231,4191.28205128205,1663,1692,67.891,67.8317337036133,0,0,0,0,2/8/2015 6:19:53 AM,
50,0,0,4470.25641025641,3944.61538461539,3983.07692307692,3986.15384615385,4512.82051282051,4404.61538461538,4317.94871794872,4434.35897435897,4714.35897435897,4119.48717948718,4270.25641025641,4230.25641025641,4009.74358974359,4229.23076923077,1663,1693,67.897,67.8317337036133,0,0,0,0,2/8/2015 6:19:53 AM,
51,0,0,4473.84615384615,3947.17948717949,3987.69230769231,3984.10256410256,4525.12820512821,4430.76923076923,4317.94871794872,4438.46153846154,4711.28205128205,4126.66666666667,4271.28205128205,4227.17948717949,4013.84615384615,4242.5641025641,1664,1692,67.905,67.8317337036133,0,0,0,0,2/8/2015 6:19:53 AM,
52,0,0,4488.20512820513,3961.02564102564,3985.12820512821,3997.94871794872,4531.79487179487,4469.74358974359,4317.94871794872,4445.12820512821,4708.20512820513,4146.66666666667,4268.71794871795,4236.92307692308,3996.41025641026,4227.69230769231,1662,1693,67.913,67.8317337036133,0,0,0,0,2/8/2015 6:19:53 AM,
53,0,0,4506.66666666667,3967.69230769231,3987.17948717949,4004.61538461539,4538.46153846154,4452.30769230769,4317.94871794872,4441.02564102564,4700,4158.46153846154,4276.41025641026,4246.66666666667,3997.4358974359,4229.23076923077,1662,1691,67.921,67.8317337036133,0,0,0,0,2/8/2015 6:19:53 AM,
54,0,0,4498.97435897436,3959.48717948718,3992.82051282051,4004.10256410256,4539.48717948718,4423.07692307692,4317.94871794872,4435.38461538462,4699.48717948718,4140,4284.61538461538,4240.51282051282,4013.33333333333,4238.46153846154,1662,1693,67.93,67.8317337036133,0,0,0,0,2/8/2015 6:19:53 AM,
55,0,0,4470.76923076923,3951.79487179487,3993.33333333333,4003.07692307692,4532.30769230769,4434.8717948718,4317.94871794872,4434.35897435897,4715.89743589744,4122.05128205128,4282.5641025641,4231.79487179487,4010.25641025641,4235.89743589744,1663,1692,67.938,67.8317337036133,0,0,0,0,2/8/2015 6:19:53 AM,
56,0,0,4473.84615384615,3958.46153846154,3992.30769230769,3997.4358974359,4542.5641025641,4444.10256410256,4317.94871794872,4431.79487179487,4736.92307692308,4133.33333333333,4270.76923076923,4234.35897435897,4000,4228.20512820513,1662,1692,67.946,67.8317337036133,0,0,0,0,2/8/2015 6:19:53 AM,
57,0,0,4491.79487179487,3963.07692307692,3984.10256410256,3987.69230769231,4543.07692307692,4434.8717948718,4317.94871794872,4429.23076923077,4739.48717948718,4142.5641025641,4262.5641025641,4233.33333333333,4007.17948717949,4232.30769230769,1662,1694,67.954,67.8317337036133,0,0,0,0,2/8/2015 6:19:53 AM,
58,0,0,4484.10256410256,3955.89743589744,3973.33333333333,3987.69230769231,4518.97435897436,4435.89743589744,4317.94871794872,4425.12820512821,4721.53846153846,4140,4265.64102564103,4230.25641025641,4013.84615384615,4246.15384615385,1663,1695,67.962,67.8317337036133,0,0,0,0,2/8/2015 6:19:53 AM,
59,0,0,4471.79487179487,3956.41025641026,3973.84615384615,4001.02564102564,4523.58974358974,4439.48717948718,4317.94871794872,4419.48717948718,4706.15384615385,4146.15384615385,4275.89743589744,4230.76923076923,4003.58974358974,4254.8717948718,1663,1695,67.97,67.8317337036133,0,0,0,0,2/8/2015 6:19:53 AM,
60,0,0,4476.92307692308,3957.94871794872,3975.89743589744,4005.12820512821,4543.58974358974,4427.69230769231,4317.94871794872,4426.15384615385,4713.33333333333,4146.66666666667,4277.4358974359,4223.58974358974,3997.94871794872,4245.64102564103,1663,1693,67.978,67.8317337036133,0,0,0,0,2/8/2015 6:19:53 AM,
61,0,0,4475.89743589744,3948.71794871795,3976.92307692308,4005.64102564103,4528.71794871795,4420.51282051282,4317.94871794872,4441.02564102564,4724.61538461539,4133.84615384615,4276.92307692308,4215.38461538462,4008.20512820513,4237.4358974359,1663,1692,67.984,67.9568405151367,0,0,0,0,2/8/2015 6:19:53 AM,
62,0,0,4461.02564102564,3948.20512820513,3978.97435897436,4004.10256410256,4529.23076923077,4425.64102564103,4317.94871794872,4442.05128205128,4709.74358974359,4132.30769230769,4275.38461538462,4221.02564102564,4017.4358974359,4235.38461538462,1663,1690,67.993,67.9568405151367,0,0,0,0,2/8/2015 6:19:53 AM,
63,0,0,4461.53846153846,3956.92307692308,3978.46153846154,3988.71794871795,4541.53846153846,4442.05128205128,4317.94871794872,4432.30769230769,4693.84615384615,4138.97435897436,4264.61538461538,4233.84615384615,4009.74358974359,4215.38461538462,1662,1692,68,67.9568405151367,0,0,0,0,2/8/2015 6:19:53 AM,
64,0,455,4480.51282051282,3955.89743589744,3981.02564102564,3987.17948717949,4514.8717948718,4458.46153846154,4317.94871794872,4425.12820512821,4703.58974358974,4133.84615384615,4267.17948717949,4236.92307692308,4003.07692307692,4217.4358974359,1664,1692,68.009,67.9568405151367,0,0,0,0,2/8/2015 6:19:53 AM,
65,0,442,4487.17948717949,3960.51282051282,3988.20512820513,4012.30769230769,4518.97435897436,4443.07692307692,4317.94871794872,4429.23076923077,4723.58974358974,4133.84615384615,4282.05128205128,4230.25641025641,4017.4358974359,4252.82051282051,1662,1694,68.016,67.9568405151367,0,0,0,0,2/8/2015 6:19:53 AM,
66,0,462,4485.64102564103,3972.82051282051,3999.48717948718,4027.69230769231,4557.94871794872,4426.66666666667,4317.94871794872,4441.02564102564,4735.38461538462,4143.07692307692,4285.12820512821,4237.94871794872,4026.66666666667,4248.20512820513,1663,1693,68.023,67.9568405151367,0,0,0,0,2/8/2015 6:19:53 AM,
67,0,494,4487.69230769231,3968.20512820513,4003.07692307692,4018.97435897436,4554.35897435897,4446.66666666667,4317.94871794872,4445.12820512821,4740.51282051282,4143.58974358974,4278.97435897436,4250.76923076923,4019.48717948718,4227.69230769231,1662,1692,68.032,67.9568405151367,0,0,0,0,2/8/2015 6:19:53 AM,
68,0,474,4484.61538461538,3961.53846153846,3992.30769230769,4010.25641025641,4537.4358974359,4462.05128205128,4317.94871794872,4441.02564102564,4729.23076923077,4137.94871794872,4282.05128205128,4241.02564102564,4017.94871794872,4251.79487179487,1664,1692,68.039,67.9568405151367,0,0,0,0,2/8/2015 6:19:53 AM,
69,0,463,4474.35897435897,3966.66666666667,3985.12820512821,4002.5641025641,4533.84615384615,4451.28205128205,4317.94871794872,4440.51282051282,4701.02564102564,4132.30769230769,4281.02564102564,4229.74358974359,4017.94871794872,4256.92307692308,1664,1693,68.046,67.9568405151367,0,0,0,0,2/8/2015 6:19:53 AM,
70,0,481,4471.79487179487,3964.10256410256,3991.28205128205,4008.71794871795,4529.74358974359,4432.82051282051,4317.94871794872,4445.12820512821,4693.33333333333,4140,4268.71794871795,4233.84615384615,4012.30769230769,4215.38461538462,1664,1694,68.054,67.9568405151367,0,0,0,0,2/8/2015 6:19:53 AM,
71,0,0,4476.92307692308,3958.97435897436,3991.79487179487,4029.74358974359,4544.61538461538,4431.79487179487,4317.94871794872,4443.07692307692,4707.69230769231,4152.30769230769,4267.69230769231,4234.35897435897,4020,4204.10256410256,1664,1693,68.062,67.9568405151367,0,0,0,0,2/8/2015 6:19:53 AM,
72,0,411,4479.48717948718,3960.51282051282,3986.15384615385,4025.12820512821,4557.94871794872,4451.28205128205,4317.94871794872,4444.10256410256,4717.94871794872,4147.17948717949,4282.05128205128,4236.41025641026,4020,4221.53846153846,1664,1694,68.069,67.9568405151367,0,0,0,0,2/8/2015 6:19:53 AM,
73,0,426,4476.41025641026,3958.46153846154,3993.33333333333,4012.82051282051,4549.74358974359,4462.5641025641,4317.94871794872,4452.82051282051,4722.5641025641,4133.84615384615,4285.12820512821,4249.23076923077,4005.12820512821,4227.69230769231,1665,1692,68.077,67.9568405151367,0,0,0,0,2/8/2015 6:19:53 AM,
74,0,434,4477.94871794872,3955.89743589744,4002.05128205128,4025.12820512821,4559.48717948718,4448.20512820513,4317.94871794872,4447.17948717949,4709.74358974359,4136.92307692308,4270.76923076923,4247.17948717949,4008.71794871795,4246.15384615385,1664,1695,68.085,67.9568405151367,0,0,0,0,2/8/2015 6:19:53 AM,
75,0,452,4490.25641025641,3957.94871794872,3996.41025641026,4026.15384615385,4558.97435897436,4438.46153846154,4317.94871794872,4437.4358974359,4693.84615384615,4144.61538461538,4272.82051282051,4232.82051282051,4023.58974358974,4271.28205128205,1665,1694,68.094,67.9568405151367,0,0,0,0,2/8/2015 6:19:53 AM,
76,0,431,4492.82051282051,3957.94871794872,3986.15384615385,4012.82051282051,4532.30769230769,4449.74358974359,4317.94871794872,4444.10256410256,4708.20512820513,4138.97435897436,4285.64102564103,4233.33333333333,4025.64102564103,4258.97435897436,1664,1695,68.102,67.9568405151367,0,0,0,0,2/8/2015 6:19:53 AM,
77,0,437,4478.97435897436,3958.46153846154,3985.64102564103,4022.5641025641,4525.12820512821,4454.8717948718,4317.94871794872,4444.10256410256,4722.5641025641,4132.82051282051,4282.05128205128,4243.58974358974,4015.89743589744,4226.66666666667,1665,1694,68.109,68.0819473266602,0,0,0,0,2/8/2015 6:19:53 AM,
78,0,434,4470.25641025641,3956.41025641026,3987.17948717949,4033.84615384615,4539.48717948718,4460,4317.94871794872,4427.69230769231,4705.12820512821,4134.8717948718,4276.41025641026,4246.15384615385,4005.64102564103,4221.02564102564,1665,1694,68.116,68.0819473266602,0,0,0,0,2/8/2015 6:19:53 AM,
79,0,452,4481.02564102564,3956.41025641026,3990.25641025641,4025.12820512821,4555.89743589744,4467.17948717949,4317.94871794872,4427.17948717949,4702.05128205128,4137.4358974359,4275.38461538462,4246.15384615385,4013.84615384615,4240.51282051282,1665,1695,68.124,68.0819473266602,0,0,0,0,2/8/2015 6:19:53 AM,
80,0,431,4487.69230769231,3966.66666666667,4000.51282051282,4029.23076923077,4548.20512820513,4457.4358974359,4317.94871794872,4441.53846153846,4724.61538461539,4134.8717948718,4265.12820512821,4249.23076923077,4025.64102564103,4250.25641025641,1665,1695,68.132,68.0819473266602,0,0,0,0,2/8/2015 6:19:53 AM,
81,0,437,4477.94871794872,3961.02564102564,4000,4041.53846153846,4513.33333333333,4442.05128205128,4317.94871794872,4437.94871794872,4723.58974358974,4133.84615384615,4262.05128205128,4248.71794871795,4009.74358974359,4240.51282051282,1665,1696,68.14,68.1132202148438,0,0,0,0,2/8/2015 6:19:53 AM,
82,0,434,4471.79487179487,3942.05128205128,3990.76923076923,4033.84615384615,4512.30769230769,4440,4317.94871794872,4423.07692307692,4702.05128205128,4136.92307692308,4286.66666666667,4248.20512820513,4000,4239.48717948718,1665,1695,68.149,68.1132202148438,0,0,0,0,2/8/2015 6:19:53 AM,
83,0,452,4476.92307692308,3946.66666666667,3994.8717948718,4033.33333333333,4542.5641025641,4435.89743589744,4317.94871794872,4413.84615384615,4698.46153846154,4130.25641025641,4302.05128205128,4245.12820512821,4027.69230769231,4263.07692307692,1665,1695,68.155,68.1132202148438,0,0,0,0,2/8/2015 6:19:53 AM,
84,0,431,4477.4358974359,3957.94871794872,3990.76923076923,4048.20512820513,4531.28205128205,4416.41025641026,4318.46153846154,4408.71794871795,4693.33333333333,4116.92307692308,4279.48717948718,4236.92307692308,4034.8717948718,4253.84615384615,1666,1694,68.164,68.1132202148438,0,0,0,0,2/8/2015 6:19:53 AM,
85,0,437,4476.92307692308,3941.02564102564,3974.35897435898,4041.53846153846,4505.12820512821,4420,4318.97435897436,4408.71794871795,4663.58974358974,4113.33333333333,4253.33333333333,4239.48717948718,4000.51282051282,4207.17948717949,1664,1694,68.171,68.1132202148438,0,0,0,0,2/8/2015 6:19:53 AM,
86,0,434,4487.17948717949,3930.76923076923,3978.97435897436,4028.20512820513,4532.30769230769,4463.07692307692,4318.97435897436,4410.25641025641,4660.51282051282,4121.53846153846,4269.74358974359,4249.74358974359,3994.35897435898,4218.97435897436,1665,1693,68.18,68.1132202148438,0,0,0,0,2/8/2015 6:19:53 AM,
87,0,452,4492.82051282051,3950.76923076923,3993.33333333333,4038.97435897436,4551.79487179487,4482.05128205128,4318.97435897436,4411.28205128205,4702.05128205128,4129.23076923077,4297.4358974359,4247.17948717949,4025.12820512821,4264.61538461538,1664,1693,68.187,68.1132202148438,0,0,0,0,2/8/2015 6:19:53 AM,
88,0,431,4494.35897435897,3961.53846153846,3990.76923076923,4060,4526.15384615385,4456.41025641026,4318.97435897436,4414.8717948718,4728.20512820513,4130.25641025641,4287.17948717949,4245.64102564103,4032.30769230769,4247.17948717949,1665,1692,68.197,68.1132202148438,0,0,0,0,2/8/2015 6:19:53 AM,
89,0,437,4486.15384615385,3946.66666666667,3988.20512820513,4059.48717948718,4514.35897435897,4440,4318.97435897436,4407.17948717949,4717.94871794872,4131.28205128205,4269.23076923077,4249.23076923077,4008.71794871795,4209.23076923077,1664,1692,68.204,68.1132202148438,0,0,0,0,2/8/2015 6:19:53 AM,
90,0,434,4475.38461538462,3940.51282051282,3988.71794871795,4049.74358974359,4530.25641025641,4442.5641025641,4318.97435897436,4392.82051282051,4707.17948717949,4135.89743589744,4280.51282051282,4238.46153846154,4004.10256410256,4235.38461538462,1664,1694,68.212,68.1132202148438,0,0,0,0,2/8/2015 6:19:53 AM,
91,0,452,4493.33333333333,3948.71794871795,3974.8717948718,4053.84615384615,4542.5641025641,4429.74358974359,4318.97435897436,4390.25641025641,4693.33333333333,4137.4358974359,4286.15384615385,4226.66666666667,4016.41025641026,4270.76923076923,1664,1692,68.22,68.1132202148438,0,0,0,0,2/8/2015 6:19:53 AM,
92,0,431,4511.28205128205,3951.28205128205,3966.66666666667,4054.8717948718,4537.4358974359,4429.74358974359,4318.97435897436,4395.38461538462,4680,4133.33333333333,4264.10256410256,4237.4358974359,4010.25641025641,4256.92307692308,1664,1693,68.227,68.1132202148438,0,0,0,0,2/8/2015 6:19:53 AM,
93,0,437,4501.02564102564,3957.4358974359,3983.07692307692,4047.17948717949,4532.82051282051,4452.82051282051,4318.97435897436,4403.58974358974,4698.46153846154,4138.97435897436,4263.58974358974,4248.20512820513,4009.74358974359,4250.76923076923,1664,1694,68.235,68.2070541381836,0,0,0,0,2/8/2015 6:19:53 AM,
94,0,434,4487.17948717949,3967.17948717949,3992.82051282051,4050.76923076923,4541.02564102564,4449.74358974359,4318.97435897436,4414.8717948718,4722.5641025641,4140,4284.10256410256,4237.4358974359,4028.20512820513,4263.58974358974,1664,1693,68.242,68.2070541381836,0,0,0,0,2/8/2015 6:19:53 AM,
95,0,452,4493.33333333333,3960,3986.15384615385,4068.20512820513,4550.76923076923,4427.17948717949,4318.97435897436,4415.89743589744,4712.82051282051,4121.53846153846,4287.69230769231,4229.23076923077,4030.76923076923,4255.38461538462,1664,1693,68.25,68.2070541381836,0,0,0,0,2/8/2015 6:19:53 AM,
96,0,431,4506.66666666667,3953.33333333333,3989.74358974359,4072.30769230769,4550.25641025641,4423.58974358974,4318.97435897436,4406.66666666667,4685.64102564103,4121.53846153846,4280,4243.58974358974,4015.89743589744,4244.10256410256,1664,1693,68.259,68.2070541381836,0,0,0,0,2/8/2015 6:19:53 AM,
97,0,437,4509.23076923077,3967.17948717949,3998.97435897436,4068.20512820513,4545.64102564103,4439.48717948718,4318.97435897436,4412.30769230769,4694.35897435897,4134.8717948718,4277.94871794872,4253.84615384615,4017.94871794872,4252.82051282051,1664,1692,68.267,68.2070541381836,0,0,0,0,2/8/2015 6:19:53 AM,
98,0,434,4495.89743589744,3973.84615384615,3992.82051282051,4066.15384615385,4544.10256410256,4460.51282051282,4318.97435897436,4426.15384615385,4725.12820512821,4126.15384615385,4277.4358974359,4248.20512820513,4031.28205128205,4246.15384615385,1665,1693,68.275,68.2070541381836,0,0,0,0,2/8/2015 6:19:53 AM,
99,0,452,4487.69230769231,3966.66666666667,3985.12820512821,4062.05128205128,4534.8717948718,4468.71794871795,4318.97435897436,4427.69230769231,4724.10256410256,4120.51282051282,4275.38461538462,4243.58974358974,4027.69230769231,4224.61538461538,1665,1695,68.283,68.2070541381836,0,0,0,0,2/8/2015 6:19:53 AM,
100,0,431,4501.53846153846,3969.74358974359,3994.8717948718,4071.79487179487,4535.38461538462,4460.51282051282,4318.97435897436,4431.79487179487,4714.35897435897,4134.8717948718,4277.4358974359,4251.79487179487,4024.10256410256,4233.84615384615,1665,1695,68.289,68.2070541381836,0,0,0,0,2/8/2015 6:19:53 AM,
101,0,437,4515.89743589744,3977.94871794872,4006.66666666667,4091.28205128205,4551.28205128205,4460,4318.97435897436,4439.48717948718,4733.33333333333,4143.58974358974,4283.07692307692,4261.02564102564,4033.33333333333,4263.58974358974,1664,1694,68.297,68.2070541381836,0,0,0,0,2/8/2015 6:19:53 AM,
102,0,434,4522.05128205128,3975.89743589744,4005.12820512821,4092.30769230769,4557.94871794872,4466.15384615385,4318.97435897436,4431.28205128205,4740.51282051282,4136.92307692308,4286.66666666667,4255.89743589744,4037.94871794872,4276.41025641026,1664,1694,68.304,68.2070541381836,0,0,0,0,2/8/2015 6:19:53 AM,
103,0,452,4518.46153846154,3971.79487179487,4002.5641025641,4079.48717948718,4557.4358974359,4453.84615384615,4318.97435897436,4416.41025641026,4708.71794871795,4127.69230769231,4284.61538461538,4250.76923076923,4030.25641025641,4256.92307692308,1664,1692,68.313,68.2070541381836,0,0,0,0,2/8/2015 6:19:53 AM,
104,0,431,4510.25641025641,3975.89743589744,4010.25641025641,4085.12820512821,4553.84615384615,4445.64102564103,4318.97435897436,4419.48717948718,4697.94871794872,4125.64102564103,4280,4262.05128205128,4023.07692307692,4235.38461538462,1662,1694,68.322,68.2070541381836,0,0,0,0,2/8/2015 6:19:53 AM,
105,0,437,4519.48717948718,3974.8717948718,4014.8717948718,4096.92307692308,4545.12820512821,4456.41025641026,4318.97435897436,4434.8717948718,4724.61538461539,4124.10256410256,4275.89743589744,4266.15384615385,4021.53846153846,4251.28205128205,1663,1693,68.329,68.2070541381836,0,0,0,0,2/8/2015 6:19:53 AM,
106,0,434,4526.66666666667,3962.5641025641,4004.10256410256,4083.58974358974,4541.02564102564,4463.58974358974,4318.97435897436,4441.02564102564,4731.79487179487,4120.51282051282,4264.10256410256,4251.79487179487,4017.4358974359,4282.5641025641,1662,1693,68.337,68.2070541381836,0,0,0,0,2/8/2015 6:19:53 AM,
107,0,452,4511.79487179487,3962.05128205128,3992.82051282051,4065.12820512821,4537.94871794872,4458.46153846154,4318.97435897436,4436.92307692308,4715.38461538462,4125.64102564103,4259.48717948718,4244.10256410256,4018.46153846154,4275.38461538462,1662,1692,68.344,68.2070541381836,0,0,0,0,2/8/2015 6:19:53 AM,
108,0,431,4502.05128205128,3966.66666666667,3988.20512820513,4066.15384615385,4522.5641025641,4451.79487179487,4318.97435897436,4432.30769230769,4706.66666666667,4132.82051282051,4276.41025641026,4245.64102564103,4023.58974358974,4247.17948717949,1662,1691,68.352,68.2070541381836,0,0,0,0,2/8/2015 6:19:53 AM,
109,0,437,4507.17948717949,3962.05128205128,3990.25641025641,4068.71794871795,4525.12820512821,4448.20512820513,4318.97435897436,4433.84615384615,4706.66666666667,4122.05128205128,4278.46153846154,4244.10256410256,4014.8717948718,4242.5641025641,1661,1692,68.36,68.332160949707,0,0,0,0,2/8/2015 6:19:53 AM,
110,0,434,4507.17948717949,3963.58974358974,3997.4358974359,4066.15384615385,4536.92307692308,4441.53846153846,4318.97435897436,4437.94871794872,4703.07692307692,4114.8717948718,4265.12820512821,4253.33333333333,4002.05128205128,4230.76923076923,1662,1692,68.368,68.332160949707,0,0,0,0,2/8/2015 6:19:53 AM,
111,0,452,4508.71794871795,3966.66666666667,4000.51282051282,4066.15384615385,4524.10256410256,4438.97435897436,4318.97435897436,4442.05128205128,4704.61538461539,4122.5641025641,4271.79487179487,4263.58974358974,4010.76923076923,4206.15384615385,1662,1694,68.375,68.332160949707,0,0,0,0,2/8/2015 6:19:53 AM,
112,0,431,4523.58974358974,3961.02564102564,3998.46153846154,4060.51282051282,4526.66666666667,4454.35897435897,4318.97435897436,4445.64102564103,4712.82051282051,4125.12820512821,4275.38461538462,4256.92307692308,4022.5641025641,4233.33333333333,1663,1694,68.383,68.332160949707,0,0,0,0,2/8/2015 6:19:53 AM,
113,0,437,4528.71794871795,3962.05128205128,3999.48717948718,4053.33333333333,4546.66666666667,4460,4319.48717948718,4446.66666666667,4715.89743589744,4126.66666666667,4260.51282051282,4247.17948717949,4010.25641025641,4278.46153846154,1662,1693,68.391,68.332160949707,0,0,0,0,2/8/2015 6:19:53 AM,
114,0,434,4508.20512820513,3963.07692307692,3997.94871794872,4056.41025641026,4542.05128205128,4441.02564102564,4320,4444.10256410256,4706.15384615385,4128.20512820513,4268.71794871795,4245.64102564103,3998.97435897436,4268.71794871795,1663,1692,68.4,68.332160949707,0,0,0,0,2/8/2015 6:19:53 AM,
115,0,452,4502.05128205128,3956.92307692308,3990.25641025641,4063.58974358974,4530.76923076923,4431.28205128205,4320,4441.53846153846,4688.20512820513,4122.5641025641,4282.5641025641,4246.15384615385,4009.23076923077,4252.30769230769,1662,1693,68.406,68.332160949707,0,0,0,0,2/8/2015 6:19:53 AM,
116,0,431,4524.10256410256,3965.64102564103,3986.66666666667,4063.07692307692,4538.46153846154,4441.02564102564,4319.48717948718,4445.64102564103,4682.5641025641,4120,4265.64102564103,4246.15384615385,4020,4272.30769230769,1664,1692,68.413,68.332160949707,0,0,0,0,2/8/2015 6:19:53 AM,
117,0,437,4526.15384615385,3977.4358974359,3988.71794871795,4055.38461538462,4550.25641025641,4448.71794871795,4320,4454.8717948718,4692.82051282051,4126.66666666667,4265.12820512821,4244.61538461538,4019.48717948718,4283.07692307692,1663,1692,68.421,68.332160949707,0,0,0,0,2/8/2015 6:19:53 AM,
118,0,434,4505.12820512821,3969.23076923077,3991.79487179487,4051.79487179487,4560.51282051282,4456.92307692308,4320,4457.94871794872,4705.64102564103,4136.92307692308,4284.61538461538,4245.64102564103,4020.51282051282,4270.25641025641,1663,1692,68.429,68.332160949707,0,0,0,0,2/8/2015 6:19:53 AM,
119,0,452,4504.61538461538,3961.53846153846,3988.71794871795,4057.94871794872,4554.35897435897,4463.58974358974,4318.46153846154,4457.4358974359,4722.5641025641,4140.51282051282,4277.94871794872,4245.64102564103,4026.15384615385,4258.46153846154,1662,1691,68.437,68.332160949707,0,0,0,0,2/8/2015 6:19:53 AM,
120,0,431,4513.33333333333,3962.5641025641,3980,4065.64102564103,4523.58974358974,4457.4358974359,4317.94871794872,4461.02564102564,4724.61538461539,4132.30769230769,4262.05128205128,4237.94871794872,4010.76923076923,4240,1663,1693,68.445,68.332160949707,0,0,0,0,2/8/2015 6:19:53 AM,
121,0,437,4496.92307692308,3960,3974.35897435898,4053.84615384615,4514.8717948718,4453.33333333333,4317.94871794872,4458.46153846154,4694.8717948718,4121.53846153846,4256.92307692308,4235.38461538462,3985.12820512821,4225.12820512821,1664,1692,68.453,68.332160949707,0,0,0,0,2/8/2015 6:19:53 AM,
122,0,434,4482.5641025641,3954.8717948718,3976.41025641026,4036.41025641026,4543.07692307692,4460.51282051282,4317.94871794872,4449.23076923077,4673.84615384615,4120.51282051282,4262.05128205128,4236.92307692308,3993.33333333333,4252.82051282051,1662,1694,68.46,68.332160949707,0,0,0,0,2/8/2015 6:19:53 AM,
123,0,452,4494.35897435897,3955.89743589744,3987.69230769231,4049.23076923077,4560,4461.02564102564,4317.94871794872,4444.10256410256,4682.5641025641,4122.05128205128,4273.33333333333,4232.82051282051,4022.05128205128,4288.71794871795,1664,1693,68.468,68.332160949707,0,0,0,0,2/8/2015 6:19:53 AM,
