COUNTER,INTERPOLATED,RAW_CQ,AF3,F7,F3, FC5, T7, P7, O1, O2,P8, T8, FC6, F4,F8, AF4,GYROX, GYROY, TIMESTAMP, ES_TIMESTAMPFUNC_ID, FUNC_VALUE, MARKER, SYNC_SIGNAL,DateTime
103,0,457,4387.17948717949,3909.74358974359,3981.53846153846,4332.30769230769,4513.84615384615,4631.79487179487,4318.97435897436,4407.17948717949,4966.66666666667,4209.74358974359,4196.92307692308,4141.53846153846,3919.48717948718,4143.07692307692,1664,1692,21.911,21.7843456268311,0,0,0,0,2/8/2015 6:19:07 AM,
104,0,410,4383.07692307692,3891.79487179487,3960,4294.35897435897,4498.97435897436,4636.92307692308,4318.97435897436,4412.30769230769,4941.02564102564,4188.20512820513,4179.48717948718,4132.82051282051,3890.76923076923,4130.76923076923,1665,1693,21.919,21.7843456268311,0,0,0,0,2/8/2015 6:19:07 AM,
105,0,441,4402.05128205128,3896.92307692308,3961.02564102564,4302.05128205128,4504.61538461538,4671.28205128205,4318.97435897436,4433.33333333333,4974.35897435897,4184.61538461538,4183.58974358974,4147.69230769231,3894.8717948718,4110.25641025641,1664,1694,21.927,21.7843456268311,0,0,0,0,2/8/2015 6:19:07 AM,
106,0,427,4396.41025641026,3905.12820512821,3993.84615384615,4332.82051282051,4504.61538461538,4687.17948717949,4318.97435897436,4458.97435897436,5005.12820512821,4191.28205128205,4187.69230769231,4174.35897435897,3913.84615384615,4084.10256410256,1665,1695,21.935,21.7843456268311,0,0,0,0,2/8/2015 6:19:07 AM,
107,0,457,4392.82051282051,3892.82051282051,4010.76923076923,4324.10256410256,4503.07692307692,4687.69230769231,4318.97435897436,4460,4964.61538461539,4204.61538461538,4189.23076923077,4176.92307692308,3911.28205128205,4109.74358974359,1663,1694,21.943,21.9094543457031,0,0,0,0,2/8/2015 6:19:07 AM,
108,0,410,4431.79487179487,3897.94871794872,3995.89743589744,4309.23076923077,4530.76923076923,4677.4358974359,4318.97435897436,4455.89743589744,4940.51282051282,4203.58974358974,4198.97435897436,4155.38461538462,3915.38461538462,4189.74358974359,1665,1695,21.951,21.9094543457031,0,0,0,0,2/8/2015 6:19:07 AM,
109,0,441,4451.28205128205,3916.41025641026,3985.12820512821,4317.94871794872,4553.84615384615,4651.79487179487,4318.97435897436,4468.71794871795,4958.97435897436,4196.41025641026,4197.94871794872,4147.17948717949,3923.58974358974,4211.79487179487,1665,1693,21.958,21.9094543457031,0,0,0,0,2/8/2015 6:19:07 AM,
110,0,427,4434.8717948718,3911.28205128205,3987.17948717949,4323.07692307692,4542.5641025641,4635.89743589744,4318.97435897436,4481.53846153846,4940,4200,4188.71794871795,4153.33333333333,3917.4358974359,4158.97435897436,1664,1695,21.966,21.9094543457031,0,0,0,0,2/8/2015 6:19:07 AM,
111,0,457,4437.94871794872,3905.12820512821,3989.23076923077,4325.12820512821,4531.79487179487,4655.89743589744,4318.97435897436,4494.35897435897,4928.71794871795,4200,4184.10256410256,4153.84615384615,3920,4142.05128205128,1666,1694,21.974,21.9094543457031,0,0,0,0,2/8/2015 6:19:07 AM,
112,0,410,4451.79487179487,3915.89743589744,3989.74358974359,4324.61538461538,4533.84615384615,4686.66666666667,4318.97435897436,4516.92307692308,4955.89743589744,4195.38461538462,4186.66666666667,4151.79487179487,3922.05128205128,4160.51282051282,1665,1694,21.982,21.9094543457031,0,0,0,0,2/8/2015 6:19:07 AM,
113,0,441,4446.66666666667,3916.92307692308,4002.05128205128,4315.89743589744,4523.58974358974,4684.10256410256,4318.97435897436,4528.71794871795,4957.4358974359,4198.46153846154,4200,4153.84615384615,3916.41025641026,4154.35897435897,1665,1692,21.99,21.9094543457031,0,0,0,0,2/8/2015 6:19:07 AM,
114,0,427,4436.92307692308,3909.23076923077,4011.28205128205,4310.25641025641,4501.02564102564,4654.8717948718,4318.97435897436,4522.5641025641,4926.66666666667,4202.5641025641,4196.41025641026,4153.33333333333,3912.30769230769,4150.76923076923,1665,1691,21.997,21.9094543457031,0,0,0,0,2/8/2015 6:19:07 AM,
115,0,457,4435.38461538462,3906.66666666667,3995.38461538462,4309.74358974359,4497.94871794872,4630.76923076923,4318.97435897436,4521.53846153846,4906.15384615385,4192.82051282051,4171.28205128205,4149.23076923077,3902.05128205128,4156.41025641026,1665,1692,22.005,21.9094543457031,0,0,0,0,2/8/2015 6:19:07 AM,
116,0,410,4438.97435897436,3912.30769230769,3989.74358974359,4311.79487179487,4529.23076923077,4636.92307692308,4318.97435897436,4534.35897435897,4917.94871794872,4181.53846153846,4175.38461538462,4151.79487179487,3900.51282051282,4150.25641025641,1664,1692,22.013,21.9094543457031,0,0,0,0,2/8/2015 6:19:07 AM,
117,0,441,4452.82051282051,3918.97435897436,4014.35897435898,4317.94871794872,4552.30769230769,4677.4358974359,4318.97435897436,4548.71794871795,4950.25641025641,4195.89743589744,4209.23076923077,4164.61538461538,3922.5641025641,4149.74358974359,1664,1693,22.021,21.9094543457031,0,0,0,0,2/8/2015 6:19:07 AM,
118,0,427,4462.5641025641,3912.82051282051,4025.64102564103,4315.38461538462,4530.76923076923,4700,4318.97435897436,4547.69230769231,4964.61538461539,4209.23076923077,4202.05128205128,4171.28205128205,3931.28205128205,4147.69230769231,1664,1694,22.029,21.9094543457031,0,0,0,0,2/8/2015 6:19:07 AM,
119,0,457,4458.46153846154,3907.69230769231,4006.66666666667,4300.51282051282,4514.35897435897,4672.30769230769,4318.97435897436,4538.97435897436,4937.4358974359,4188.71794871795,4172.82051282051,4156.92307692308,3913.33333333333,4149.23076923077,1664,1693,22.037,21.9094543457031,0,0,0,0,2/8/2015 6:19:07 AM,
120,0,410,4457.94871794872,3911.79487179487,3993.33333333333,4293.33333333333,4530.76923076923,4634.8717948718,4318.97435897436,4534.8717948718,4895.89743589744,4178.46153846154,4178.46153846154,4134.8717948718,3910.76923076923,4169.74358974359,1664,1694,22.044,21.9094543457031,0,0,0,0,2/8/2015 6:19:07 AM,
121,0,441,4458.46153846154,3906.66666666667,4002.5641025641,4300,4523.58974358974,4607.17948717949,4318.97435897436,4537.4358974359,4872.30769230769,4189.23076923077,4184.61538461538,4136.41025641026,3909.23076923077,4158.46153846154,1665,1693,22.052,21.9094543457031,0,0,0,0,2/8/2015 6:19:07 AM,
122,0,427,4453.84615384615,3893.33333333333,4012.82051282051,4300,4501.53846153846,4594.35897435897,4318.97435897436,4550.25641025641,4877.94871794872,4175.89743589744,4171.79487179487,4158.46153846154,3893.33333333333,4111.79487179487,1665,1693,22.06,21.9094543457031,0,0,0,0,2/8/2015 6:19:07 AM,
123,0,457,4467.17948717949,3896.41025641026,4011.79487179487,4293.84615384615,4513.84615384615,4623.58974358974,4318.97435897436,4577.4358974359,4895.89743589744,4171.79487179487,4172.82051282051,4164.10256410256,3894.8717948718,4117.94871794872,1665,1693,22.068,22.0345611572266,0,0,0,0,2/8/2015 6:19:07 AM,
124,0,410,4502.05128205128,3913.84615384615,4001.53846153846,4295.89743589744,4543.07692307692,4663.07692307692,4318.97435897436,4605.64102564103,4917.94871794872,4199.48717948718,4182.5641025641,4144.10256410256,3913.84615384615,4183.58974358974,1664,1692,22.076,22.0345611572266,0,0,0,0,2/8/2015 6:19:07 AM,
125,0,441,4486.66666666667,3908.71794871795,3989.23076923077,4289.23076923077,4546.15384615385,4638.46153846154,4318.97435897436,4609.74358974359,4911.28205128205,4202.5641025641,4173.33333333333,4122.5641025641,3920,4201.02564102564,1665,1691,22.084,22.0345611572266,0,0,0,0,2/8/2015 6:19:07 AM,
126,0,427,4433.33333333333,3890.76923076923,3988.71794871795,4280.51282051282,4526.15384615385,4592.82051282051,4318.97435897436,4599.48717948718,4867.17948717949,4182.05128205128,4162.5641025641,4119.48717948718,3905.64102564103,4149.23076923077,1664,1690,22.091,22.0345611572266,0,0,0,0,2/8/2015 6:19:07 AM,
127,0,457,4453.84615384615,3897.94871794872,3996.92307692308,4293.33333333333,4523.07692307692,4625.64102564103,4318.97435897436,4605.64102564103,4885.64102564103,4173.84615384615,4173.33333333333,4135.38461538462,3900.51282051282,4121.02564102564,1664,1692,22.099,22.0658378601074,0,0,0,0,2/8/2015 6:19:07 AM,
128,0,410,4513.33333333333,3908.71794871795,3993.84615384615,4298.46153846154,4543.07692307692,4672.30769230769,4318.97435897436,4620,4935.38461538462,4175.89743589744,4183.07692307692,4143.58974358974,3910.25641025641,4144.10256410256,1664,1690,22.107,22.0658378601074,0,0,0,0,2/8/2015 6:19:07 AM,
0,0,459,4505.64102564103,3898.46153846154,3983.58974358974,4283.58974358974,4558.46153846154,4648.20512820513,4318.97435897436,4618.46153846154,4914.8717948718,4194.8717948718,4176.41025641026,4127.17948717949,3919.48717948718,4171.79487179487,1663,1692,22.116,22.0658378601074,0,0,0,0,2/8/2015 6:19:07 AM,
1,0,439,4472.30769230769,3894.8717948718,3989.23076923077,4289.23076923077,4556.41025641026,4623.58974358974,4318.97435897436,4612.82051282051,4899.48717948718,4221.53846153846,4161.53846153846,4116.41025641026,3925.64102564103,4171.79487179487,1665,1690,22.124,22.0658378601074,0,0,0,0,2/8/2015 6:19:07 AM,
2,0,474,4486.15384615385,3902.05128205128,4004.61538461539,4299.48717948718,4535.89743589744,4623.58974358974,4318.97435897436,4607.17948717949,4911.28205128205,4209.23076923077,4162.5641025641,4131.28205128205,3923.58974358974,4143.07692307692,1664,1691,22.131,22.0658378601074,0,0,0,0,2/8/2015 6:19:07 AM,
3,0,490,4503.07692307692,3896.41025641026,4008.71794871795,4285.12820512821,4512.82051282051,4602.05128205128,4318.97435897436,4602.05128205128,4884.10256410256,4178.46153846154,4182.5641025641,4143.07692307692,3916.92307692308,4132.82051282051,1664,1691,22.139,22.0658378601074,0,0,0,0,2/8/2015 6:19:07 AM,
4,0,475,4491.28205128205,3892.82051282051,4003.58974358974,4280.51282051282,4528.20512820513,4615.89743589744,4318.97435897436,4620,4891.79487179487,4182.5641025641,4190.25641025641,4136.92307692308,3925.64102564103,4158.46153846154,1665,1690,22.146,22.0658378601074,0,0,0,0,2/8/2015 6:19:07 AM,
5,0,437,4479.48717948718,3896.41025641026,4001.02564102564,4292.30769230769,4559.48717948718,4664.61538461539,4318.97435897436,4641.02564102564,4948.71794871795,4200.51282051282,4175.38461538462,4134.8717948718,3939.48717948718,4140.51282051282,1665,1689,22.154,22.0658378601074,0,0,0,0,2/8/2015 6:19:07 AM,
6,0,485,4475.89743589744,3884.10256410256,4002.5641025641,4287.17948717949,4546.66666666667,4654.8717948718,4318.97435897436,4644.61538461538,4943.07692307692,4202.05128205128,4163.58974358974,4143.58974358974,3932.82051282051,4107.17948717949,1664,1690,22.162,22.0658378601074,0,0,0,0,2/8/2015 6:19:07 AM,
7,0,0,4480.51282051282,3870.25641025641,4005.12820512821,4276.92307692308,4533.84615384615,4630.76923076923,4318.97435897436,4646.15384615385,4912.30769230769,4188.20512820513,4170.25641025641,4146.66666666667,3927.69230769231,4157.94871794872,1665,1692,22.17,22.0658378601074,0,0,0,0,2/8/2015 6:19:07 AM,
8,0,404,4471.28205128205,3860.51282051282,4004.10256410256,4284.61538461538,4534.8717948718,4632.82051282051,4318.97435897436,4645.12820512821,4908.71794871795,4170.76923076923,4162.5641025641,4147.69230769231,3928.71794871795,4192.30769230769,1665,1693,22.177,22.0658378601074,0,0,0,0,2/8/2015 6:19:07 AM,
9,0,426,4444.10256410256,3834.8717948718,4000.51282051282,4276.41025641026,4511.28205128205,4605.12820512821,4318.97435897436,4632.30769230769,4873.33333333333,4167.17948717949,4145.64102564103,4156.92307692308,3911.28205128205,4127.17948717949,1664,1692,22.186,22.0658378601074,0,0,0,0,2/8/2015 6:19:07 AM,
10,0,428,4440.51282051282,3808.20512820513,3981.53846153846,4244.10256410256,4500,4562.5641025641,4318.97435897436,4616.41025641026,4831.79487179487,4176.41025641026,4149.74358974359,4144.10256410256,3896.92307692308,4111.28205128205,1664,1689,22.193,22.15966796875,0,0,0,0,2/8/2015 6:19:07 AM,
11,0,457,4467.69230769231,3816.41025641026,3967.69230769231,4243.58974358974,4524.61538461538,4566.66666666667,4318.97435897436,4620,4858.97435897436,4177.94871794872,4152.30769230769,4117.94871794872,3906.66666666667,4167.17948717949,1663,1692,22.202,22.15966796875,0,0,0,0,2/8/2015 6:19:07 AM,
12,0,410,4477.4358974359,3829.74358974359,3984.61538461539,4271.28205128205,4527.17948717949,4589.23076923077,4318.97435897436,4635.38461538462,4905.12820512821,4169.23076923077,4147.69230769231,4121.02564102564,3918.46153846154,4159.48717948718,1665,1694,22.211,22.15966796875,0,0,0,0,2/8/2015 6:19:07 AM,
13,0,441,4460,3820,3984.61538461539,4272.82051282051,4511.28205128205,4584.61538461538,4318.97435897436,4629.23076923077,4897.94871794872,4155.89743589744,4142.5641025641,4128.20512820513,3905.64102564103,4114.35897435897,1663,1695,22.218,22.15966796875,0,0,0,0,2/8/2015 6:19:07 AM,
14,0,428,4434.8717948718,3810.76923076923,3960.51282051282,4252.82051282051,4505.64102564103,4578.46153846154,4318.97435897436,4612.30769230769,4882.05128205128,4147.17948717949,4130.25641025641,4117.4358974359,3891.28205128205,4113.84615384615,1663,1695,22.225,22.15966796875,0,0,0,0,2/8/2015 6:19:07 AM,
15,0,457,4420,3803.58974358974,3954.8717948718,4246.66666666667,4511.28205128205,4588.71794871795,4318.97435897436,4612.30769230769,4881.53846153846,4149.74358974359,4133.84615384615,4107.69230769231,3899.48717948718,4138.97435897436,1664,1693,22.234,22.15966796875,0,0,0,0,2/8/2015 6:19:07 AM,
16,0,0,4436.92307692308,3797.4358974359,3963.58974358974,4247.17948717949,4532.82051282051,4574.35897435897,4318.97435897436,4616.92307692308,4855.89743589744,4166.66666666667,4149.74358974359,4108.71794871795,3911.28205128205,4144.61538461538,1664,1692,22.24,22.15966796875,0,0,0,0,2/8/2015 6:19:07 AM,
17,0,0,4466.15384615385,3808.20512820513,3972.30769230769,4252.82051282051,4536.41025641026,4548.20512820513,4318.97435897436,4624.10256410256,4869.74358974359,4181.02564102564,4151.79487179487,4118.97435897436,3917.94871794872,4135.38461538462,1664,1691,22.248,22.15966796875,0,0,0,0,2/8/2015 6:19:07 AM,
18,0,0,4464.61538461538,3817.94871794872,3978.46153846154,4266.15384615385,4518.46153846154,4567.17948717949,4318.97435897436,4636.41025641026,4920.51282051282,4171.28205128205,4147.69230769231,4122.05128205128,3928.20512820513,4136.41025641026,1665,1690,22.257,22.15966796875,0,0,0,0,2/8/2015 6:19:07 AM,
19,0,0,4448.71794871795,3805.64102564103,3969.23076923077,4265.64102564103,4534.8717948718,4595.89743589744,4318.97435897436,4633.84615384615,4900,4157.94871794872,4146.66666666667,4110.76923076923,3925.64102564103,4133.33333333333,1665,1689,22.263,22.15966796875,0,0,0,0,2/8/2015 6:19:07 AM,
20,0,0,4440.51282051282,3795.38461538462,3960,4251.28205128205,4560,4596.92307692308,4318.97435897436,4630.25641025641,4858.97435897436,4165.12820512821,4139.48717948718,4110.76923076923,3910.76923076923,4107.69230769231,1664,1690,22.272,22.15966796875,0,0,0,0,2/8/2015 6:19:07 AM,
21,0,0,4437.4358974359,3804.61538461539,3972.82051282051,4244.61538461538,4545.64102564103,4610.25641025641,4318.97435897436,4640,4880.51282051282,4176.41025641026,4135.38461538462,4131.28205128205,3906.66666666667,4094.8717948718,1665,1689,22.279,22.15966796875,0,0,0,0,2/8/2015 6:19:07 AM,
22,0,0,4443.07692307692,3812.82051282051,3986.15384615385,4251.28205128205,4525.12820512821,4613.33333333333,4318.97435897436,4646.66666666667,4900.51282051282,4171.79487179487,4137.94871794872,4141.02564102564,3910.76923076923,4114.8717948718,1663,1691,22.287,22.15966796875,0,0,0,0,2/8/2015 6:19:07 AM,
23,0,0,4435.89743589744,3804.10256410256,3992.82051282051,4250.76923076923,4519.48717948718,4565.64102564103,4318.97435897436,4640.51282051282,4873.84615384615,4166.66666666667,4135.38461538462,4131.28205128205,3912.30769230769,4126.66666666667,1664,1691,22.297,22.15966796875,0,0,0,0,2/8/2015 6:19:07 AM,
24,0,0,4426.15384615385,3798.46153846154,3991.28205128205,4249.23076923077,4521.02564102564,4550.25641025641,4318.97435897436,4634.8717948718,4860,4171.28205128205,4138.97435897436,4118.97435897436,3916.41025641026,4122.5641025641,1662,1691,22.304,22.15966796875,0,0,0,0,2/8/2015 6:19:07 AM,
25,0,0,4457.94871794872,3812.30769230769,3980,4256.41025641026,4534.35897435897,4606.66666666667,4318.97435897436,4638.46153846154,4873.33333333333,4172.30769230769,4143.07692307692,4124.10256410256,3913.84615384615,4118.46153846154,1663,1691,22.311,22.15966796875,0,0,0,0,2/8/2015 6:19:07 AM,
26,0,0,4484.61538461538,3822.05128205128,3985.12820512821,4255.38461538462,4547.17948717949,4627.69230769231,4318.97435897436,4647.69230769231,4892.82051282051,4163.07692307692,4139.48717948718,4140.51282051282,3907.17948717949,4118.46153846154,1663,1692,22.32,22.2847766876221,0,0,0,0,2/8/2015 6:19:07 AM,
27,0,0,4462.5641025641,3811.28205128205,3991.79487179487,4245.12820512821,4536.92307692308,4578.97435897436,4318.97435897436,4640.51282051282,4866.66666666667,4152.30769230769,4141.53846153846,4129.74358974359,3909.23076923077,4123.07692307692,1663,1693,22.327,22.2847766876221,0,0,0,0,2/8/2015 6:19:07 AM,
28,0,0,4438.97435897436,3799.48717948718,3977.4358974359,4242.5641025641,4510.76923076923,4552.30769230769,4318.97435897436,4615.38461538462,4794.8717948718,4153.33333333333,4134.35897435897,4110.25641025641,3910.76923076923,4120.51282051282,1663,1692,22.335,22.2847766876221,0,0,0,0,2/8/2015 6:19:07 AM,
29,0,0,4442.5641025641,3799.48717948718,3978.97435897436,4250.76923076923,4505.12820512821,4554.8717948718,4318.97435897436,4617.4358974359,4803.07692307692,4156.41025641026,4122.05128205128,4125.64102564103,3907.69230769231,4099.48717948718,1663,1693,22.343,22.2847766876221,0,0,0,0,2/8/2015 6:19:07 AM,
30,0,0,4450.25641025641,3801.02564102564,3999.48717948718,4252.82051282051,4530.76923076923,4539.48717948718,4318.97435897436,4647.69230769231,4874.8717948718,4150.76923076923,4132.82051282051,4151.28205128205,3914.35897435898,4103.58974358974,1663,1691,22.35,22.2847766876221,0,0,0,0,2/8/2015 6:19:07 AM,
31,0,0,4456.92307692308,3797.94871794872,3994.35897435898,4245.64102564103,4539.48717948718,4542.5641025641,4318.97435897436,4656.41025641026,4865.64102564103,4149.74358974359,4148.20512820513,4149.74358974359,3927.17948717949,4135.38461538462,1664,1691,22.358,22.2847766876221,0,0,0,0,2/8/2015 6:19:07 AM,
32,0,0,4460.51282051282,3794.35897435898,3977.4358974359,4243.58974358974,4522.5641025641,4566.15384615385,4318.97435897436,4633.33333333333,4800.51282051282,4155.38461538462,4136.92307692308,4136.92307692308,3928.20512820513,4156.92307692308,1665,1689,22.367,22.2847766876221,0,0,0,0,2/8/2015 6:19:07 AM,
33,0,0,4464.10256410256,3802.05128205128,3987.17948717949,4249.23076923077,4524.10256410256,4569.23076923077,4318.97435897436,4627.17948717949,4801.53846153846,4154.35897435897,4136.92307692308,4137.4358974359,3931.28205128205,4181.02564102564,1663,1690,22.374,22.2847766876221,0,0,0,0,2/8/2015 6:19:07 AM,
34,0,0,4477.94871794872,3810.25641025641,4001.53846153846,4243.07692307692,4512.30769230769,4549.23076923077,4318.97435897436,4635.89743589744,4814.8717948718,4138.46153846154,4161.02564102564,4147.69230769231,3949.23076923077,4198.97435897436,1665,1689,22.382,22.2847766876221,0,0,0,0,2/8/2015 6:19:07 AM,
35,0,0,4488.20512820513,3801.02564102564,3994.35897435898,4225.64102564103,4475.89743589744,4509.74358974359,4318.97435897436,4618.97435897436,4767.69230769231,4121.53846153846,4145.64102564103,4152.30769230769,3943.07692307692,4195.89743589744,1664,1690,22.389,22.2847766876221,0,0,0,0,2/8/2015 6:19:07 AM,
36,0,0,4494.35897435897,3797.94871794872,3993.33333333333,4233.84615384615,4483.58974358974,4486.15384615385,4318.97435897436,4613.33333333333,4761.02564102564,4126.66666666667,4114.35897435897,4155.89743589744,3925.64102564103,4189.23076923077,1664,1691,22.397,22.2847766876221,0,0,0,0,2/8/2015 6:19:07 AM,
37,0,0,4506.66666666667,3816.92307692308,4014.8717948718,4259.48717948718,4531.79487179487,4513.33333333333,4318.97435897436,4638.46153846154,4802.5641025641,4145.64102564103,4136.41025641026,4169.74358974359,3936.92307692308,4185.12820512821,1664,1690,22.405,22.2847766876221,0,0,0,0,2/8/2015 6:19:07 AM,
38,0,0,4528.20512820513,3826.66666666667,4026.15384615385,4253.84615384615,4542.5641025641,4531.79487179487,4318.97435897436,4643.58974358974,4793.33333333333,4144.61538461538,4162.05128205128,4177.94871794872,3952.30769230769,4198.46153846154,1663,1693,22.413,22.2847766876221,0,0,0,0,2/8/2015 6:19:07 AM,
39,0,0,4520.51282051282,3805.12820512821,4011.28205128205,4228.20512820513,4513.33333333333,4513.84615384615,4318.97435897436,4624.61538461538,4739.48717948718,4123.58974358974,4142.05128205128,4165.12820512821,3945.12820512821,4228.20512820513,1664,1693,22.421,22.2847766876221,0,0,0,0,2/8/2015 6:19:07 AM,
40,0,0,4476.41025641026,3796.41025641026,3993.84615384615,4231.28205128205,4503.07692307692,4524.10256410256,4318.97435897436,4618.46153846154,4721.02564102564,4111.28205128205,4126.66666666667,4152.82051282051,3932.82051282051,4231.28205128205,1663,1692,22.429,22.2847766876221,0,0,0,0,2/8/2015 6:19:07 AM,
41,0,0,4482.5641025641,3816.41025641026,4004.10256410256,4252.82051282051,4529.23076923077,4540.51282051282,4318.97435897436,4629.23076923077,4763.07692307692,4130.76923076923,4151.28205128205,4164.10256410256,3938.97435897436,4206.15384615385,1663,1692,22.436,22.2847766876221,0,0,0,0,2/8/2015 6:19:07 AM,
42,0,0,4527.17948717949,3819.48717948718,4020.51282051282,4251.28205128205,4561.02564102564,4522.5641025641,4318.97435897436,4632.82051282051,4789.23076923077,4165.12820512821,4169.23076923077,4173.33333333333,3955.89743589744,4197.94871794872,1664,1693,22.444,22.4098834991455,0,0,0,0,2/8/2015 6:19:07 AM,
43,0,0,4510.25641025641,3807.17948717949,4003.58974358974,4233.33333333333,4554.35897435897,4515.89743589744,4318.97435897436,4621.53846153846,4750.25641025641,4174.35897435897,4156.41025641026,4159.48717948718,3957.94871794872,4205.12820512821,1664,1693,22.451,22.4098834991455,0,0,0,0,2/8/2015 6:19:07 AM,
44,0,0,4474.35897435897,3811.79487179487,3980.51282051282,4235.89743589744,4527.17948717949,4528.71794871795,4318.97435897436,4611.79487179487,4724.61538461539,4153.33333333333,4141.02564102564,4144.61538461538,3940,4206.66666666667,1664,1694,22.459,22.4098834991455,0,0,0,0,2/8/2015 6:19:07 AM,
45,0,0,4476.92307692308,3816.41025641026,3984.10256410256,4241.02564102564,4524.61538461538,4529.74358974359,4318.97435897436,4616.92307692308,4753.33333333333,4120.51282051282,4131.79487179487,4149.74358974359,3924.61538461539,4184.61538461538,1664,1691,22.467,22.4098834991455,0,0,0,0,2/8/2015 6:19:07 AM,
46,0,0,4454.8717948718,3794.35897435898,3996.41025641026,4218.46153846154,4523.07692307692,4519.48717948718,4318.97435897436,4620,4753.84615384615,4103.58974358974,4123.07692307692,4158.97435897436,3916.41025641026,4122.5641025641,1664,1692,22.475,22.4098834991455,0,0,0,0,2/8/2015 6:19:07 AM,
47,0,0,4420.51282051282,3778.97435897436,3990.76923076923,4210.76923076923,4507.69230769231,4511.79487179487,4318.97435897436,4610.25641025641,4717.94871794872,4124.10256410256,4124.61538461538,4148.71794871795,3907.17948717949,4087.17948717949,1665,1690,22.485,22.4098834991455,0,0,0,0,2/8/2015 6:19:07 AM,
48,0,0,4446.66666666667,3791.28205128205,3976.41025641026,4233.84615384615,4515.38461538462,4504.61538461538,4318.97435897436,4617.94871794872,4720.51282051282,4151.28205128205,4137.94871794872,4137.94871794872,3914.35897435898,4119.48717948718,1664,1690,22.491,22.4098834991455,0,0,0,0,2/8/2015 6:19:07 AM,
49,0,0,4466.15384615385,3802.5641025641,3969.74358974359,4234.8717948718,4531.79487179487,4510.76923076923,4318.97435897436,4633.84615384615,4737.94871794872,4142.5641025641,4137.4358974359,4143.07692307692,3924.61538461539,4131.79487179487,1664,1689,22.499,22.4098834991455,0,0,0,0,2/8/2015 6:19:07 AM,
50,0,0,4433.33333333333,3800.51282051282,3972.82051282051,4216.41025641026,4514.8717948718,4527.69230769231,4318.97435897436,4631.28205128205,4734.8717948718,4121.02564102564,4124.10256410256,4152.82051282051,3913.84615384615,4092.30769230769,1665,1690,22.506,22.4098834991455,0,0,0,0,2/8/2015 6:19:07 AM,
51,0,0,4404.61538461538,3792.30769230769,3980.51282051282,4211.28205128205,4499.48717948718,4510.76923076923,4318.97435897436,4612.30769230769,4680.51282051282,4104.10256410256,4115.89743589744,4154.35897435897,3894.35897435898,4073.84615384615,1666,1690,22.514,22.4098834991455,0,0,0,0,2/8/2015 6:19:07 AM,
52,0,0,4405.12820512821,3776.92307692308,3981.02564102564,4214.35897435897,4507.69230769231,4471.28205128205,4318.97435897436,4596.92307692308,4631.28205128205,4087.17948717949,4107.17948717949,4144.61538461538,3887.69230769231,4094.35897435898,1665,1690,22.521,22.4098834991455,0,0,0,0,2/8/2015 6:19:07 AM,
53,0,0,4425.64102564103,3780,3983.07692307692,4231.28205128205,4508.71794871795,4474.35897435897,4318.97435897436,4603.58974358974,4692.82051282051,4101.02564102564,4109.23076923077,4140,3902.05128205128,4119.48717948718,1667,1690,22.529,22.4098834991455,0,0,0,0,2/8/2015 6:19:07 AM,
54,0,0,4445.64102564103,3809.23076923077,3988.71794871795,4249.74358974359,4515.89743589744,4503.58974358974,4318.97435897436,4620,4768.71794871795,4134.8717948718,4121.53846153846,4149.23076923077,3922.5641025641,4127.69230769231,1666,1689,22.539,22.4098834991455,0,0,0,0,2/8/2015 6:19:07 AM,
55,0,0,4443.07692307692,3813.33333333333,3988.71794871795,4241.02564102564,4542.5641025641,4491.79487179487,4318.97435897436,4617.94871794872,4737.4358974359,4134.8717948718,4121.53846153846,4160,3917.4358974359,4097.4358974359,1667,1689,22.546,22.4098834991455,0,0,0,0,2/8/2015 6:19:07 AM,
56,0,0,4430.25641025641,3792.82051282051,3977.94871794872,4226.66666666667,4553.33333333333,4471.28205128205,4318.97435897436,4601.53846153846,4697.4358974359,4112.30769230769,4120.51282051282,4151.28205128205,3895.89743589744,4086.15384615385,1667,1687,22.554,22.4098834991455,0,0,0,0,2/8/2015 6:19:07 AM,
57,0,0,4425.12820512821,3785.12820512821,3966.15384615385,4221.02564102564,4531.28205128205,4475.38461538462,4318.97435897436,4598.46153846154,4715.89743589744,4115.38461538462,4117.94871794872,4134.8717948718,3900.51282051282,4115.38461538462,1666,1689,22.561,22.4098834991455,0,0,0,0,2/8/2015 6:19:07 AM,
58,0,0,4415.89743589744,3775.38461538462,3963.07692307692,4215.38461538462,4497.4358974359,4476.41025641026,4318.97435897436,4593.84615384615,4681.53846153846,4127.17948717949,4098.97435897436,4129.74358974359,3909.74358974359,4103.07692307692,1668,1688,22.569,22.5349903106689,0,0,0,0,2/8/2015 6:19:07 AM,
59,0,0,4409.23076923077,3764.61538461539,3948.20512820513,4222.05128205128,4495.38461538462,4469.74358974359,4318.97435897436,4578.97435897436,4615.89743589744,4118.97435897436,4087.69230769231,4119.48717948718,3892.30769230769,4071.79487179487,1668,1689,22.577,22.5349903106689,0,0,0,0,2/8/2015 6:19:07 AM,
60,0,0,4415.38461538462,3776.41025641026,3946.66666666667,4230.25641025641,4524.61538461538,4445.64102564103,4318.97435897436,4589.74358974359,4651.28205128205,4111.79487179487,4106.15384615385,4124.10256410256,3885.64102564103,4080.51282051282,1667,1689,22.585,22.5349903106689,0,0,0,0,2/8/2015 6:19:07 AM,
61,0,0,4410.76923076923,3788.20512820513,3971.28205128205,4222.5641025641,4537.94871794872,4431.28205128205,4318.97435897436,4612.82051282051,4725.64102564103,4120,4121.02564102564,4148.71794871795,3897.94871794872,4080.51282051282,1667,1689,22.593,22.5349903106689,0,0,0,0,2/8/2015 6:19:07 AM,
62,0,0,4407.69230769231,3781.02564102564,3975.38461538462,4213.33333333333,4536.41025641026,4463.58974358974,4318.97435897436,4612.82051282051,4726.66666666667,4125.64102564103,4106.66666666667,4150.76923076923,3900,4078.97435897436,1667,1688,22.601,22.5662689208984,0,0,0,0,2/8/2015 6:19:07 AM,
63,0,0,4426.66666666667,3780,3959.48717948718,4215.38461538462,4535.38461538462,4492.82051282051,4318.97435897436,4599.48717948718,4689.74358974359,4119.48717948718,4089.74358974359,4133.33333333333,3893.84615384615,4105.12820512821,1665,1690,22.608,22.5662689208984,0,0,0,0,2/8/2015 6:19:07 AM,
64,0,459,4437.4358974359,3787.17948717949,3973.33333333333,4225.12820512821,4514.8717948718,4478.46153846154,4318.97435897436,4595.38461538462,4672.82051282051,4121.02564102564,4098.46153846154,4138.46153846154,3894.35897435898,4103.58974358974,1666,1690,22.616,22.5662689208984,0,0,0,0,2/8/2015 6:19:07 AM,
65,0,439,4420.51282051282,3785.12820512821,3995.38461538462,4226.15384615385,4511.79487179487,4453.84615384615,4318.97435897436,4585.12820512821,4654.8717948718,4123.07692307692,4119.48717948718,4146.66666666667,3905.12820512821,4094.35897435898,1665,1691,22.624,22.5662689208984,0,0,0,0,2/8/2015 6:19:07 AM,
66,0,474,4423.07692307692,3787.17948717949,3975.38461538462,4215.38461538462,4560,4446.15384615385,4318.97435897436,4571.79487179487,4652.82051282051,4118.97435897436,4115.38461538462,4136.41025641026,3909.23076923077,4115.38461538462,1664,1691,22.632,22.5662689208984,0,0,0,0,2/8/2015 6:19:07 AM,
67,0,492,4443.58974358974,3800.51282051282,3951.28205128205,4212.82051282051,4579.48717948718,4456.92307692308,4318.97435897436,4574.35897435897,4673.33333333333,4121.53846153846,4096.41025641026,4141.53846153846,3895.38461538462,4115.38461538462,1665,1691,22.64,22.5662689208984,0,0,0,0,2/8/2015 6:19:07 AM,
68,0,475,4442.5641025641,3810.25641025641,3966.15384615385,4222.5641025641,4534.35897435897,4476.92307692308,4318.97435897436,4583.07692307692,4686.66666666667,4120,4104.61538461538,4156.92307692308,3902.5641025641,4109.23076923077,1664,1695,22.648,22.5662689208984,0,0,0,0,2/8/2015 6:19:07 AM,
69,0,442,4431.79487179487,3803.07692307692,3980.51282051282,4219.48717948718,4502.5641025641,4464.61538461538,4318.97435897436,4578.46153846154,4671.28205128205,4107.17948717949,4115.89743589744,4148.71794871795,3921.02564102564,4111.28205128205,1664,1690,22.654,22.5662689208984,0,0,0,0,2/8/2015 6:19:07 AM,
70,0,483,4416.41025641026,3790.25641025641,3958.46153846154,4202.5641025641,4504.10256410256,4442.05128205128,4318.97435897436,4565.64102564103,4637.94871794872,4101.02564102564,4101.53846153846,4124.10256410256,3906.66666666667,4091.28205128205,1663,1690,22.662,22.5662689208984,0,0,0,0,2/8/2015 6:19:07 AM,
71,0,0,4397.4358974359,3800.51282051282,3945.12820512821,4201.02564102564,4510.76923076923,4429.23076923077,4318.97435897436,4574.8717948718,4659.48717948718,4110.76923076923,4098.46153846154,4119.48717948718,3898.97435897436,4070.76923076923,1664,1688,22.67,22.5662689208984,0,0,0,0,2/8/2015 6:19:07 AM,
72,0,407,4385.12820512821,3806.66666666667,3969.23076923077,4199.48717948718,4505.12820512821,4375.38461538462,4318.97435897436,4589.23076923077,4675.89743589744,4107.69230769231,4105.64102564103,4139.48717948718,3906.15384615385,4042.5641025641,1663,1688,22.678,22.5662689208984,0,0,0,0,2/8/2015 6:19:07 AM,
73,0,426,4366.66666666667,3773.84615384615,3971.28205128205,4173.33333333333,4486.66666666667,4355.38461538462,4318.97435897436,4577.4358974359,4617.4358974359,4094.35897435898,4080,4139.48717948718,3883.07692307692,3996.41025641026,1664,1688,22.686,22.5662689208984,0,0,0,0,2/8/2015 6:19:07 AM,
74,0,430,4358.97435897436,3758.97435897436,3946.66666666667,4162.05128205128,4502.05128205128,4432.82051282051,4318.97435897436,4570.76923076923,4621.53846153846,4105.12820512821,4061.02564102564,4123.58974358974,3868.71794871795,4009.23076923077,1663,1691,22.693,22.660099029541,0,0,0,0,2/8/2015 6:19:07 AM,
75,0,456,4392.82051282051,3789.23076923077,3948.71794871795,4183.07692307692,4519.48717948718,4480,4318.97435897436,4573.33333333333,4677.4358974359,4125.12820512821,4089.23076923077,4125.64102564103,3890.25641025641,4062.5641025641,1664,1692,22.701,22.660099029541,0,0,0,0,2/8/2015 6:19:07 AM,
76,0,410,4427.69230769231,3810.76923076923,3967.69230769231,4195.38461538462,4501.02564102564,4439.48717948718,4318.97435897436,4562.05128205128,4635.38461538462,4124.10256410256,4113.84615384615,4139.48717948718,3905.64102564103,4057.4358974359,1663,1691,22.709,22.660099029541,0,0,0,0,2/8/2015 6:19:07 AM,
77,0,441,4417.94871794872,3816.41025641026,3977.94871794872,4193.84615384615,4511.28205128205,4406.66666666667,4318.97435897436,4555.38461538462,4607.69230769231,4113.33333333333,4110.25641025641,4153.84615384615,3914.35897435898,4042.05128205128,1663,1693,22.717,22.660099029541,0,0,0,0,2/8/2015 6:19:07 AM,
78,0,430,4392.82051282051,3828.20512820513,3984.10256410256,4203.07692307692,4555.89743589744,4432.82051282051,4318.97435897436,4576.92307692308,4688.20512820513,4121.53846153846,4104.10256410256,4156.92307692308,3923.58974358974,4084.10256410256,1664,1691,22.725,22.660099029541,0,0,0,0,2/8/2015 6:19:07 AM,
79,0,456,4387.69230769231,3815.89743589744,3981.53846153846,4195.38461538462,4555.38461538462,4462.05128205128,4318.97435897436,4575.89743589744,4674.8717948718,4127.17948717949,4094.8717948718,4141.53846153846,3909.23076923077,4087.69230769231,1663,1693,22.733,22.660099029541,0,0,0,0,2/8/2015 6:19:07 AM,
80,0,410,4404.61538461538,3783.58974358974,3962.05128205128,4168.71794871795,4506.15384615385,4435.38461538462,4318.97435897436,4540.51282051282,4573.84615384615,4105.12820512821,4085.12820512821,4129.74358974359,3892.30769230769,4042.5641025641,1664,1693,22.74,22.660099029541,0,0,0,0,2/8/2015 6:19:07 AM,
81,0,441,4411.28205128205,3782.05128205128,3951.28205128205,4162.5641025641,4488.20512820513,4402.05128205128,4318.97435897436,4536.41025641026,4583.07692307692,4088.20512820513,4095.38461538462,4137.94871794872,3900.51282051282,4045.12820512821,1662,1692,22.748,22.660099029541,0,0,0,0,2/8/2015 6:19:07 AM,
82,0,430,4397.4358974359,3808.20512820513,3967.17948717949,4181.02564102564,4514.35897435897,4436.41025641026,4318.97435897436,4561.02564102564,4646.15384615385,4098.46153846154,4104.61538461538,4154.35897435897,3912.30769230769,4064.10256410256,1663,1693,22.756,22.660099029541,0,0,0,0,2/8/2015 6:19:07 AM,
83,0,456,4397.94871794872,3822.5641025641,3983.58974358974,4194.8717948718,4536.41025641026,4452.30769230769,4318.97435897436,4563.58974358974,4633.84615384615,4113.33333333333,4098.46153846154,4155.38461538462,3912.82051282051,4055.38461538462,1663,1692,22.764,22.660099029541,0,0,0,0,2/8/2015 6:19:07 AM,
84,0,410,4406.15384615385,3808.20512820513,3976.92307692308,4184.61538461538,4525.64102564103,4397.94871794872,4318.97435897436,4551.79487179487,4588.20512820513,4106.15384615385,4095.89743589744,4138.97435897436,3911.79487179487,4052.82051282051,1664,1692,22.772,22.660099029541,0,0,0,0,2/8/2015 6:19:07 AM,
85,0,441,4396.92307692308,3792.30769230769,3965.12820512821,4166.15384615385,4512.82051282051,4414.8717948718,4318.97435897436,4560.51282051282,4595.89743589744,4095.89743589744,4096.41025641026,4138.97435897436,3908.71794871795,4063.07692307692,1663,1692,22.779,22.660099029541,0,0,0,0,2/8/2015 6:19:07 AM,
86,0,430,4389.74358974359,3801.53846153846,3980.51282051282,4169.23076923077,4521.53846153846,4486.15384615385,4318.97435897436,4575.89743589744,4637.4358974359,4097.94871794872,4101.02564102564,4158.97435897436,3905.64102564103,4062.5641025641,1663,1694,22.787,22.660099029541,0,0,0,0,2/8/2015 6:19:07 AM,
87,0,456,4403.07692307692,3823.58974358974,3992.82051282051,4187.17948717949,4526.15384615385,4466.66666666667,4318.97435897436,4571.28205128205,4641.02564102564,4105.64102564103,4116.92307692308,4151.28205128205,3920.51282051282,4062.05128205128,1664,1694,22.795,22.660099029541,0,0,0,0,2/8/2015 6:19:07 AM,
88,0,410,4413.33333333333,3833.84615384615,3978.46153846154,4189.23076923077,4535.89743589744,4408.20512820513,4318.97435897436,4556.41025641026,4596.92307692308,4112.30769230769,4123.58974358974,4128.20512820513,3935.38461538462,4067.69230769231,1663,1694,22.803,22.660099029541,0,0,0,0,2/8/2015 6:19:07 AM,
89,0,441,4402.5641025641,3822.05128205128,3977.4358974359,4181.53846153846,4540.51282051282,4422.5641025641,4318.97435897436,4552.30769230769,4580.51282051282,4113.33333333333,4101.53846153846,4134.8717948718,3930.76923076923,4061.53846153846,1664,1693,22.811,22.660099029541,0,0,0,0,2/8/2015 6:19:07 AM,
90,0,430,4394.8717948718,3812.82051282051,3988.20512820513,4185.12820512821,4532.82051282051,4457.94871794872,4318.97435897436,4560.51282051282,4606.66666666667,4124.61538461538,4086.15384615385,4146.66666666667,3921.53846153846,4060,1662,1695,22.82,22.7852058410645,0,0,0,0,2/8/2015 6:19:07 AM,
91,0,456,4407.69230769231,3823.07692307692,3980,4181.02564102564,4541.53846153846,4444.10256410256,4318.97435897436,4552.82051282051,4587.69230769231,4129.74358974359,4100,4142.5641025641,3912.30769230769,4060.51282051282,1665,1694,22.826,22.7852058410645,0,0,0,0,2/8/2015 6:19:07 AM,
92,0,410,4414.8717948718,3831.28205128205,3980,4169.23076923077,4537.94871794872,4440,4318.97435897436,4542.5641025641,4567.69230769231,4111.28205128205,4111.79487179487,4147.17948717949,3910.25641025641,4050.25641025641,1664,1695,22.834,22.7852058410645,0,0,0,0,2/8/2015 6:19:07 AM,
93,0,441,4410.25641025641,3834.8717948718,4001.02564102564,4167.69230769231,4524.10256410256,4466.15384615385,4318.97435897436,4552.30769230769,4600,4103.58974358974,4112.82051282051,4160,3928.20512820513,4054.8717948718,1665,1695,22.842,22.7852058410645,0,0,0,0,2/8/2015 6:19:07 AM,
94,0,430,4419.48717948718,3844.61538461539,4006.66666666667,4178.46153846154,4546.66666666667,4458.46153846154,4318.97435897436,4554.35897435897,4607.69230769231,4120.51282051282,4114.35897435897,4154.35897435897,3941.02564102564,4082.05128205128,1665,1693,22.85,22.7852058410645,0,0,0,0,2/8/2015 6:19:07 AM,
95,0,456,4415.38461538462,3844.10256410256,3991.28205128205,4187.17948717949,4557.94871794872,4433.84615384615,4318.97435897436,4551.79487179487,4582.05128205128,4126.15384615385,4106.15384615385,4141.02564102564,3921.53846153846,4072.30769230769,1665,1693,22.858,22.7852058410645,0,0,0,0,2/8/2015 6:19:07 AM,
96,0,410,4382.5641025641,3824.61538461539,3975.89743589744,4169.23076923077,4514.8717948718,4447.69230769231,4318.97435897436,4556.92307692308,4574.35897435897,4113.84615384615,4094.35897435898,4136.41025641026,3898.46153846154,4043.58974358974,1665,1692,22.865,22.7852058410645,0,0,0,0,2/8/2015 6:19:07 AM,
97,0,441,4379.48717948718,3812.82051282051,3974.35897435898,4136.41025641026,4509.74358974359,4452.82051282051,4318.97435897436,4538.97435897436,4556.41025641026,4107.69230769231,4098.46153846154,4136.41025641026,3909.74358974359,4070.76923076923,1665,1694,22.873,22.7852058410645,0,0,0,0,2/8/2015 6:19:07 AM,
98,0,430,4412.82051282051,3827.17948717949,4001.02564102564,4134.8717948718,4540,4435.38461538462,4318.97435897436,4516.41025641026,4542.05128205128,4103.07692307692,4115.38461538462,4151.28205128205,3933.33333333333,4110.76923076923,1665,1695,22.881,22.7852058410645,0,0,0,0,2/8/2015 6:19:08 AM,
99,0,456,4424.10256410256,3852.82051282051,4015.38461538462,4166.15384615385,4530.76923076923,4448.71794871795,4318.97435897436,4523.07692307692,4562.5641025641,4100.51282051282,4120,4171.79487179487,3935.38461538462,4087.17948717949,1664,1696,22.889,22.7852058410645,0,0,0,0,2/8/2015 6:19:08 AM,
100,0,410,4407.69230769231,3862.05128205128,3986.66666666667,4177.4358974359,4537.4358974359,4455.89743589744,4318.97435897436,4518.46153846154,4559.48717948718,4116.41025641026,4108.71794871795,4161.53846153846,3925.12820512821,4051.28205128205,1664,1695,22.897,22.7852058410645,0,0,0,0,2/8/2015 6:19:08 AM,
101,0,441,4412.30769230769,3860,3962.05128205128,4158.46153846154,4578.97435897436,4444.61538461538,4318.97435897436,4500,4538.46153846154,4142.05128205128,4101.53846153846,4143.07692307692,3925.64102564103,4064.61538461539,1663,1695,22.905,22.7852058410645,0,0,0,0,2/8/2015 6:19:08 AM,
102,0,430,4426.66666666667,3867.69230769231,3973.33333333333,4150.25641025641,4564.61538461538,4453.84615384615,4318.97435897436,4504.10256410256,4542.5641025641,4138.46153846154,4111.28205128205,4157.94871794872,3931.28205128205,4086.66666666667,1663,1694,22.912,22.7852058410645,0,0,0,0,2/8/2015 6:19:08 AM,
103,0,456,4414.8717948718,3878.97435897436,3993.84615384615,4156.41025641026,4516.41025641026,4468.20512820513,4318.97435897436,4505.64102564103,4543.58974358974,4106.66666666667,4114.35897435897,4175.38461538462,3934.35897435898,4093.84615384615,1663,1694,22.92,22.7852058410645,0,0,0,0,2/8/2015 6:19:08 AM,
104,0,410,4407.17948717949,3885.12820512821,3996.92307692308,4158.46153846154,4528.20512820513,4472.30769230769,4318.97435897436,4490.76923076923,4537.94871794872,4105.12820512821,4103.58974358974,4162.05128205128,3937.94871794872,4097.94871794872,1663,1694,22.928,22.7852058410645,0,0,0,0,2/8/2015 6:19:08 AM,
105,0,441,4415.38461538462,3883.07692307692,3987.69230769231,4150.76923076923,4548.71794871795,4481.02564102564,4318.97435897436,4486.15384615385,4548.71794871795,4136.41025641026,4110.76923076923,4148.20512820513,3936.41025641026,4089.23076923077,1663,1694,22.936,22.7852058410645,0,0,0,0,2/8/2015 6:19:08 AM,
106,0,430,4406.66666666667,3866.66666666667,3986.66666666667,4142.5641025641,4524.10256410256,4467.69230769231,4318.97435897436,4483.58974358974,4562.05128205128,4141.02564102564,4113.33333333333,4155.89743589744,3922.5641025641,4056.41025641026,1663,1692,22.944,22.9103145599365,0,0,0,0,2/8/2015 6:19:08 AM,
107,0,456,4384.61538461538,3844.10256410256,3989.23076923077,4125.12820512821,4514.35897435897,4440,4318.97435897436,4475.89743589744,4548.20512820513,4118.46153846154,4092.30769230769,4169.74358974359,3911.79487179487,4031.28205128205,1663,1692,22.951,22.9103145599365,0,0,0,0,2/8/2015 6:19:08 AM,
108,0,410,4388.20512820513,3847.17948717949,3988.71794871795,4115.89743589744,4523.07692307692,4445.12820512821,4318.97435897436,4481.02564102564,4523.07692307692,4107.17948717949,4095.89743589744,4167.17948717949,3922.5641025641,4075.38461538462,1663,1691,22.959,22.9103145599365,0,0,0,0,2/8/2015 6:19:08 AM,
109,0,441,4408.71794871795,3863.07692307692,3998.46153846154,4132.82051282051,4522.5641025641,4459.48717948718,4318.97435897436,4491.28205128205,4520.51282051282,4103.07692307692,4111.28205128205,4162.05128205128,3934.8717948718,4117.94871794872,1663,1693,22.967,22.9103145599365,0,0,0,0,2/8/2015 6:19:08 AM,
110,0,430,4413.84615384615,3854.35897435898,4008.20512820513,4139.48717948718,4518.46153846154,4474.8717948718,4318.97435897436,4494.35897435897,4539.48717948718,4108.71794871795,4101.02564102564,4176.41025641026,3921.02564102564,4076.41025641026,1664,1693,22.975,22.9103145599365,0,0,0,0,2/8/2015 6:19:08 AM,
111,0,456,4429.23076923077,3849.74358974359,3997.4358974359,4130.25641025641,4533.33333333333,4493.84615384615,4318.97435897436,4491.79487179487,4540.51282051282,4130.76923076923,4107.69230769231,4183.58974358974,3922.5641025641,4061.02564102564,1663,1693,22.983,22.9103145599365,0,0,0,0,2/8/2015 6:19:08 AM,
112,0,410,4442.05128205128,3865.12820512821,3982.5641025641,4120,4554.35897435897,4476.92307692308,4318.97435897436,4474.35897435897,4495.38461538462,4141.02564102564,4126.66666666667,4168.71794871795,3952.30769230769,4120.51282051282,1663,1693,22.991,22.9103145599365,0,0,0,0,2/8/2015 6:19:08 AM,
113,0,441,4420.51282051282,3869.74358974359,3988.20512820513,4122.5641025641,4550.25641025641,4452.30769230769,4318.97435897436,4453.84615384615,4457.94871794872,4129.23076923077,4106.66666666667,4167.69230769231,3949.23076923077,4129.74358974359,1663,1692,22.998,22.9103145599365,0,0,0,0,2/8/2015 6:19:08 AM,
114,0,430,4415.38461538462,3871.28205128205,4005.64102564103,4143.58974358974,4530.25641025641,4470.76923076923,4318.97435897436,4463.07692307692,4491.28205128205,4113.33333333333,4092.82051282051,4185.64102564103,3930.76923076923,4089.23076923077,1664,1693,23.006,22.9103145599365,0,0,0,0,2/8/2015 6:19:08 AM,
115,0,456,4429.23076923077,3869.23076923077,4015.38461538462,4152.82051282051,4519.48717948718,4489.74358974359,4318.97435897436,4476.41025641026,4530.76923076923,4111.28205128205,4121.02564102564,4192.82051282051,3942.5641025641,4106.15384615385,1663,1692,23.014,22.9103145599365,0,0,0,0,2/8/2015 6:19:08 AM,
116,0,410,4409.23076923077,3853.84615384615,4007.17948717949,4129.23076923077,4532.30769230769,4470.76923076923,4318.97435897436,4463.58974358974,4501.53846153846,4124.61538461538,4122.05128205128,4184.61538461538,3949.23076923077,4125.64102564103,1664,1693,23.022,22.9103145599365,0,0,0,0,2/8/2015 6:19:08 AM,
117,0,441,4390.25641025641,3849.74358974359,3990.76923076923,4107.69230769231,4538.97435897436,4457.94871794872,4318.46153846154,4450.25641025641,4463.58974358974,4134.8717948718,4092.82051282051,4175.38461538462,3935.38461538462,4108.71794871795,1664,1692,23.03,22.9103145599365,0,0,0,0,2/8/2015 6:19:08 AM,
118,0,430,4404.61538461538,3860.51282051282,3983.58974358974,4116.92307692308,4524.61538461538,4468.20512820513,4318.46153846154,4456.92307692308,4471.28205128205,4138.46153846154,4101.02564102564,4174.35897435897,3944.10256410256,4100,1663,1693,23.037,22.9103145599365,0,0,0,0,2/8/2015 6:19:08 AM,
119,0,456,4403.07692307692,3854.8717948718,3990.25641025641,4120.51282051282,4520.51282051282,4456.92307692308,4318.97435897436,4460.51282051282,4481.53846153846,4137.4358974359,4123.58974358974,4184.61538461538,3947.17948717949,4083.58974358974,1663,1692,23.045,22.9103145599365,0,0,0,0,2/8/2015 6:19:08 AM,
120,0,410,4384.61538461538,3840.51282051282,3996.41025641026,4103.07692307692,4520.51282051282,4430.76923076923,4318.97435897436,4449.74358974359,4466.66666666667,4115.38461538462,4105.12820512821,4187.17948717949,3913.84615384615,4074.35897435898,1663,1694,23.053,22.9103145599365,0,0,0,0,2/8/2015 6:19:08 AM,
121,0,441,4391.79487179487,3838.97435897436,3997.4358974359,4100,4499.48717948718,4444.10256410256,4317.94871794872,4442.05128205128,4455.89743589744,4107.69230769231,4087.17948717949,4178.97435897436,3908.71794871795,4102.5641025641,1664,1692,23.061,22.9103145599365,0,0,0,0,2/8/2015 6:19:08 AM,
122,0,430,4423.07692307692,3861.02564102564,4006.15384615385,4127.17948717949,4509.74358974359,4489.23076923077,4320,4454.8717948718,4488.71794871795,4132.30769230769,4109.74358974359,4186.66666666667,3948.20512820513,4148.20512820513,1662,1693,23.069,23.03542137146,0,0,0,0,2/8/2015 6:19:08 AM,
123,0,456,4451.79487179487,3883.07692307692,4007.69230769231,4146.15384615385,4581.02564102564,4503.07692307692,4324.61538461538,4476.92307692308,4528.20512820513,4139.48717948718,4124.10256410256,4193.33333333333,3964.10256410256,4166.66666666667,1663,1694,23.077,23.03542137146,0,0,0,0,2/8/2015 6:19:08 AM,
124,0,410,4446.66666666667,3870.25641025641,3994.8717948718,4125.64102564103,4587.69230769231,4477.4358974359,4324.61538461538,4471.28205128205,4515.38461538462,4128.71794871795,4122.5641025641,4177.4358974359,3947.17948717949,4135.38461538462,1664,1694,23.084,23.03542137146,0,0,0,0,2/8/2015 6:19:08 AM,
125,0,441,4420.51282051282,3852.82051282051,3998.97435897436,4117.4358974359,4520,4458.97435897436,4323.58974358974,4455.38461538462,4496.41025641026,4132.30769230769,4122.5641025641,4168.71794871795,3944.61538461539,4109.74358974359,1664,1695,23.092,23.03542137146,0,0,0,0,2/8/2015 6:19:08 AM,
126,0,430,4406.15384615385,3863.07692307692,4014.8717948718,4132.82051282051,4510.76923076923,4454.8717948718,4327.17948717949,4463.58974358974,4494.8717948718,4135.38461538462,4094.35897435898,4181.53846153846,3946.66666666667,4102.5641025641,1664,1694,23.1,23.0666980743408,0,0,0,0,2/8/2015 6:19:08 AM,
127,0,456,4402.05128205128,3862.05128205128,4010.76923076923,4126.15384615385,4544.61538461538,4457.4358974359,4329.23076923077,4478.97435897436,4489.23076923077,4126.15384615385,4080,4190.76923076923,3938.97435897436,4101.53846153846,1663,1695,23.108,23.0666980743408,0,0,0,0,2/8/2015 6:19:08 AM,
128,0,410,4414.8717948718,3854.8717948718,3989.23076923077,4114.8717948718,4561.53846153846,4474.35897435897,4329.23076923077,4478.46153846154,4509.74358974359,4125.12820512821,4119.48717948718,4174.8717948718,3953.33333333333,4125.64102564103,1663,1693,23.116,23.0666980743408,0,0,0,0,2/8/2015 6:19:08 AM,
0,0,459,4424.61538461538,3866.66666666667,3979.48717948718,4123.58974358974,4553.84615384615,4469.23076923077,4331.79487179487,4469.74358974359,4534.35897435897,4133.84615384615,4129.23076923077,4158.46153846154,3963.58974358974,4142.05128205128,1663,1693,23.124,23.0666980743408,0,0,0,0,2/8/2015 6:19:08 AM,
1,0,444,4404.61538461538,3862.05128205128,3989.23076923077,4118.97435897436,4526.15384615385,4427.69230769231,4334.35897435897,4466.66666666667,4513.33333333333,4141.02564102564,4091.79487179487,4164.61538461538,3934.8717948718,4112.30769230769,1664,1692,23.131,23.0666980743408,0,0,0,0,2/8/2015 6:19:08 AM,
2,0,482,4403.58974358974,3849.23076923077,3990.76923076923,4106.66666666667,4528.20512820513,4422.5641025641,4333.33333333333,4468.71794871795,4506.15384615385,4129.23076923077,4083.58974358974,4175.89743589744,3916.41025641026,4096.92307692308,1662,1693,23.139,23.0666980743408,0,0,0,0,2/8/2015 6:19:08 AM,
3,0,492,4413.84615384615,3854.8717948718,3971.79487179487,4107.17948717949,4543.58974358974,4462.05128205128,4334.35897435897,4463.58974358974,4513.84615384615,4109.23076923077,4096.92307692308,4166.15384615385,3931.28205128205,4107.17948717949,1663,1693,23.147,23.0666980743408,0,0,0,0,2/8/2015 6:19:08 AM,
4,0,479,4392.30769230769,3854.8717948718,3970.25641025641,4096.92307692308,4507.17948717949,4465.12820512821,4335.38461538462,4447.17948717949,4491.79487179487,4113.33333333333,4090.25641025641,4154.35897435897,3929.74358974359,4090.76923076923,1664,1694,23.155,23.0666980743408,0,0,0,0,2/8/2015 6:19:08 AM,
5,0,442,4388.20512820513,3848.71794871795,3984.61538461539,4091.28205128205,4488.71794871795,4436.92307692308,4331.28205128205,4450.25641025641,4498.46153846154,4124.10256410256,4090.76923076923,4155.89743589744,3918.46153846154,4098.46153846154,1664,1695,23.163,23.0666980743408,0,0,0,0,2/8/2015 6:19:08 AM,
6,0,483,4394.8717948718,3848.71794871795,3974.8717948718,4102.5641025641,4531.79487179487,4418.46153846154,4327.17948717949,4452.30769230769,4504.10256410256,4124.10256410256,4091.28205128205,4149.23076923077,3924.61538461539,4117.4358974359,1664,1694,23.17,23.0666980743408,0,0,0,0,2/8/2015 6:19:08 AM,
7,0,0,4380.51282051282,3846.15384615385,3973.33333333333,4104.10256410256,4535.38461538462,4409.23076923077,4328.20512820513,4432.30769230769,4490.76923076923,4119.48717948718,4073.84615384615,4156.92307692308,3918.97435897436,4072.82051282051,1664,1697,23.178,23.0666980743408,0,0,0,0,2/8/2015 6:19:08 AM,
8,0,407,4391.28205128205,3848.20512820513,3992.82051282051,4098.97435897436,4499.48717948718,4430.25641025641,4328.20512820513,4429.23076923077,4512.30769230769,4122.05128205128,4073.33333333333,4178.97435897436,3915.38461538462,4062.05128205128,1666,1696,23.186,23.0666980743408,0,0,0,0,2/8/2015 6:19:08 AM,
9,0,426,4415.89743589744,3853.84615384615,3982.5641025641,4104.61538461538,4509.23076923077,4444.61538461538,4326.66666666667,4438.97435897436,4516.41025641026,4126.66666666667,4096.92307692308,4165.12820512821,3935.38461538462,4104.10256410256,1664,1695,23.194,23.1605281829834,0,0,0,0,2/8/2015 6:19:08 AM,
10,0,433,4409.74358974359,3853.84615384615,3965.64102564103,4111.28205128205,4536.41025641026,4421.02564102564,4330.25641025641,4438.97435897436,4490.25641025641,4115.89743589744,4108.71794871795,4153.33333333333,3947.69230769231,4104.10256410256,1665,1694,23.202,23.1605281829834,0,0,0,0,2/8/2015 6:19:08 AM,
11,0,456,4413.84615384615,3867.69230769231,3987.17948717949,4121.02564102564,4540.51282051282,4424.61538461538,4330.76923076923,4452.30769230769,4533.84615384615,4102.05128205128,4104.61538461538,4181.53846153846,3950.76923076923,4113.84615384615,1665,1693,23.21,23.1605281829834,0,0,0,0,2/8/2015 6:19:08 AM,
12,0,411,4444.61538461538,3886.66666666667,3998.46153846154,4131.79487179487,4546.15384615385,4449.74358974359,4323.58974358974,4465.64102564103,4583.07692307692,4112.30769230769,4106.66666666667,4188.71794871795,3958.97435897436,4167.69230769231,1666,1692,23.217,23.1605281829834,0,0,0,0,2/8/2015 6:19:08 AM,
13,0,441,4440.51282051282,3875.89743589744,3968.20512820513,4120,4534.8717948718,4430.76923076923,4320.51282051282,4444.10256410256,4514.35897435897,4128.20512820513,4104.10256410256,4154.8717948718,3949.23076923077,4148.71794871795,1665,1693,23.225,23.1605281829834,0,0,0,0,2/8/2015 6:19:08 AM,
14,0,433,4411.79487179487,3855.38461538462,3949.74358974359,4101.02564102564,4494.8717948718,4420.51282051282,4322.05128205128,4426.15384615385,4465.12820512821,4122.5641025641,4095.38461538462,4144.61538461538,3934.35897435898,4072.30769230769,1667,1694,23.233,23.1605281829834,0,0,0,0,2/8/2015 6:19:08 AM,
15,0,456,4406.15384615385,3858.97435897436,3966.15384615385,4108.20512820513,4483.58974358974,4453.33333333333,4322.05128205128,4440,4522.5641025641,4123.58974358974,4095.89743589744,4164.10256410256,3947.69230769231,4078.46153846154,1665,1692,23.241,23.1605281829834,0,0,0,0,2/8/2015 6:19:08 AM,
16,0,0,4418.97435897436,3872.30769230769,3976.41025641026,4128.20512820513,4510.76923076923,4458.46153846154,4321.53846153846,4456.41025641026,4568.71794871795,4118.97435897436,4092.30769230769,4171.79487179487,3955.38461538462,4118.46153846154,1665,1691,23.249,23.1605281829834,0,0,0,0,2/8/2015 6:19:08 AM,
17,0,0,4415.38461538462,3873.84615384615,3968.20512820513,4126.66666666667,4526.66666666667,4434.35897435897,4320.51282051282,4460.51282051282,4555.38461538462,4092.30769230769,4086.66666666667,4168.71794871795,3942.5641025641,4089.74358974359,1666,1691,23.256,23.1605281829834,0,0,0,0,2/8/2015 6:19:08 AM,
18,0,0,4392.30769230769,3860.51282051282,3969.23076923077,4112.30769230769,4529.74358974359,4425.12820512821,4318.46153846154,4443.58974358974,4540.51282051282,4091.28205128205,4099.48717948718,4173.33333333333,3944.61538461539,4069.23076923077,1665,1694,23.264,23.1605281829834,0,0,0,0,2/8/2015 6:19:08 AM,
19,0,0,4400,3857.4358974359,3978.97435897436,4115.38461538462,4544.10256410256,4450.25641025641,4318.46153846154,4421.53846153846,4547.17948717949,4128.20512820513,4114.35897435897,4172.82051282051,3960.51282051282,4117.4358974359,1666,1694,23.272,23.1605281829834,0,0,0,0,2/8/2015 6:19:08 AM,
20,0,0,4432.30769230769,3872.30769230769,3968.20512820513,4122.5641025641,4533.84615384615,4463.58974358974,4320,4406.66666666667,4509.74358974359,4147.69230769231,4102.5641025641,4158.46153846154,3952.82051282051,4125.12820512821,1665,1695,23.28,23.1605281829834,0,0,0,0,2/8/2015 6:19:08 AM,
21,0,0,4432.30769230769,3882.05128205128,3960,4122.05128205128,4491.79487179487,4425.64102564103,4319.48717948718,4391.79487179487,4462.5641025641,4141.02564102564,4086.66666666667,4154.8717948718,3936.92307692308,4085.64102564103,1664,1693,23.288,23.1605281829834,0,0,0,0,2/8/2015 6:19:08 AM,
22,0,0,4405.12820512821,3881.53846153846,3977.4358974359,4125.64102564103,4495.89743589744,4414.35897435897,4319.48717948718,4388.20512820513,4480,4139.48717948718,4092.82051282051,4165.12820512821,3950.25641025641,4101.53846153846,1664,1689,23.296,23.1605281829834,0,0,0,0,2/8/2015 6:19:08 AM,
23,0,0,4409.74358974359,3881.02564102564,3980.51282051282,4127.69230769231,4556.41025641026,4447.69230769231,4320,4397.4358974359,4505.12820512821,4133.84615384615,4101.53846153846,4169.74358974359,3959.48717948718,4124.61538461538,1664,1688,23.303,23.1605281829834,0,0,0,0,2/8/2015 6:19:08 AM,
24,0,0,4440.51282051282,3882.05128205128,3955.89743589744,4118.97435897436,4573.33333333333,4446.66666666667,4320,4396.41025641026,4489.74358974359,4121.53846153846,4099.48717948718,4166.66666666667,3946.66666666667,4105.64102564103,1664,1688,23.311,23.1605281829834,0,0,0,0,2/8/2015 6:19:08 AM,
25,0,0,4449.23076923077,3890.25641025641,3961.53846153846,4124.61538461538,4527.17948717949,4426.66666666667,4319.48717948718,4392.82051282051,4484.10256410256,4119.48717948718,4102.5641025641,4159.48717948718,3950.76923076923,4116.92307692308,1664,1690,23.319,23.2856369018555,0,0,0,0,2/8/2015 6:19:08 AM,
26,0,0,4443.07692307692,3900,3991.79487179487,4141.53846153846,4499.48717948718,4422.5641025641,4319.48717948718,4394.8717948718,4496.92307692308,4126.15384615385,4112.30769230769,4155.38461538462,3967.69230769231,4143.58974358974,1663,1689,23.327,23.2856369018555,0,0,0,0,2/8/2015 6:19:08 AM,
27,0,0,4433.84615384615,3890.25641025641,3989.23076923077,4128.71794871795,4509.23076923077,4409.74358974359,4319.48717948718,4390.76923076923,4487.17948717949,4127.17948717949,4101.02564102564,4166.66666666667,3955.89743589744,4102.05128205128,1663,1687,23.335,23.2856369018555,0,0,0,0,2/8/2015 6:19:08 AM,
28,0,0,4415.89743589744,3873.33333333333,3966.66666666667,4103.58974358974,4523.07692307692,4400,4319.48717948718,4391.79487179487,4471.79487179487,4122.5641025641,4081.02564102564,4170.76923076923,3934.8717948718,4057.4358974359,1663,1689,23.342,23.2856369018555,0,0,0,0,2/8/2015 6:19:08 AM,
29,0,0,4406.66666666667,3875.89743589744,3966.15384615385,4100.51282051282,4523.58974358974,4412.82051282051,4319.48717948718,4397.4358974359,4450.76923076923,4117.94871794872,4087.69230769231,4156.92307692308,3937.94871794872,4087.69230769231,1663,1689,23.35,23.2856369018555,0,0,0,0,2/8/2015 6:19:08 AM,
30,0,0,4412.30769230769,3881.02564102564,3974.35897435898,4111.28205128205,4512.82051282051,4421.53846153846,4319.48717948718,4394.35897435897,4429.23076923077,4106.66666666667,4105.64102564103,4150.25641025641,3946.15384615385,4113.84615384615,1663,1692,23.359,23.2856369018555,0,0,0,0,2/8/2015 6:19:08 AM,
31,0,0,4417.4358974359,3878.97435897436,3978.46153846154,4123.07692307692,4510.76923076923,4446.66666666667,4320,4407.69230769231,4472.82051282051,4098.97435897436,4107.17948717949,4163.58974358974,3950.76923076923,4093.33333333333,1664,1692,23.366,23.2856369018555,0,0,0,0,2/8/2015 6:19:08 AM,
32,0,0,4436.92307692308,3887.69230769231,3986.15384615385,4135.89743589744,4523.58974358974,4472.82051282051,4320,4426.66666666667,4535.89743589744,4110.25641025641,4102.5641025641,4180.51282051282,3958.46153846154,4092.82051282051,1663,1691,23.376,23.2856369018555,0,0,0,0,2/8/2015 6:19:08 AM,
33,0,0,4461.02564102564,3898.97435897436,3988.71794871795,4139.48717948718,4534.35897435897,4449.23076923077,4319.48717948718,4414.35897435897,4522.05128205128,4121.53846153846,4100.51282051282,4176.92307692308,3963.58974358974,4129.74358974359,1665,1690,23.383,23.2856369018555,0,0,0,0,2/8/2015 6:19:08 AM,
34,0,0,4466.15384615385,3897.4358974359,3988.20512820513,4144.10256410256,4545.12820512821,4427.17948717949,4320,4397.94871794872,4475.89743589744,4111.28205128205,4097.4358974359,4165.64102564103,3958.46153846154,4134.8717948718,1664,1691,23.391,23.2856369018555,0,0,0,0,2/8/2015 6:19:08 AM,
35,0,0,4469.23076923077,3891.28205128205,3990.76923076923,4153.84615384615,4550.25641025641,4447.17948717949,4320,4401.02564102564,4469.23076923077,4100,4101.02564102564,4172.30769230769,3954.35897435898,4111.79487179487,1664,1693,23.399,23.2856369018555,0,0,0,0,2/8/2015 6:19:08 AM,
36,0,0,4478.46153846154,3897.4358974359,3987.69230769231,4152.30769230769,4529.23076923077,4454.8717948718,4319.48717948718,4393.33333333333,4472.30769230769,4104.61538461538,4101.02564102564,4170.25641025641,3957.4358974359,4110.76923076923,1665,1692,23.406,23.2856369018555,0,0,0,0,2/8/2015 6:19:08 AM,
37,0,0,4475.38461538462,3918.97435897436,3985.12820512821,4156.41025641026,4519.48717948718,4430.25641025641,4317.94871794872,4387.17948717949,4483.58974358974,4107.17948717949,4094.8717948718,4160.51282051282,3956.92307692308,4109.23076923077,1664,1694,23.414,23.2856369018555,0,0,0,0,2/8/2015 6:19:08 AM,
38,0,0,4458.97435897436,3930.25641025641,3992.30769230769,4168.20512820513,4548.71794871795,4438.97435897436,4317.94871794872,4397.4358974359,4522.05128205128,4106.66666666667,4098.46153846154,4164.10256410256,3953.33333333333,4110.25641025641,1665,1693,23.422,23.2856369018555,0,0,0,0,2/8/2015 6:19:08 AM,
39,0,0,4451.79487179487,3921.02564102564,3986.66666666667,4157.94871794872,4548.71794871795,4466.15384615385,4317.94871794872,4394.35897435897,4526.66666666667,4114.8717948718,4103.58974358974,4160.51282051282,3957.94871794872,4116.92307692308,1665,1695,23.429,23.2856369018555,0,0,0,0,2/8/2015 6:19:08 AM,
40,0,0,4455.38461538462,3910.76923076923,3971.79487179487,4136.92307692308,4498.46153846154,4443.58974358974,4317.94871794872,4380.51282051282,4487.69230769231,4118.97435897436,4095.89743589744,4147.17948717949,3956.92307692308,4097.4358974359,1665,1695,23.437,23.2856369018555,0,0,0,0,2/8/2015 6:19:08 AM,
41,0,0,4445.64102564103,3905.64102564103,3975.89743589744,4136.41025641026,4491.28205128205,4426.15384615385,4317.94871794872,4378.97435897436,4470.76923076923,4115.89743589744,4092.30769230769,4157.4358974359,3944.61538461539,4074.35897435898,1665,1696,23.445,23.4107437133789,0,0,0,0,2/8/2015 6:19:08 AM,
42,0,0,4441.02564102564,3905.12820512821,3988.20512820513,4140.51282051282,4528.71794871795,4450.76923076923,4317.94871794872,4382.5641025641,4474.35897435897,4110.76923076923,4096.41025641026,4169.23076923077,3940,4088.71794871795,1665,1695,23.453,23.4107437133789,0,0,0,0,2/8/2015 6:19:08 AM,
43,0,0,4458.97435897436,3912.30769230769,3994.35897435898,4141.02564102564,4525.12820512821,4451.28205128205,4318.46153846154,4383.07692307692,4474.8717948718,4103.58974358974,4100,4169.74358974359,3944.61538461539,4096.92307692308,1665,1693,23.461,23.4107437133789,0,0,0,0,2/8/2015 6:19:08 AM,
44,0,0,4456.41025641026,3912.30769230769,4002.05128205128,4150.25641025641,4517.4358974359,4430.76923076923,4319.48717948718,4383.58974358974,4474.35897435897,4112.82051282051,4100.51282051282,4178.46153846154,3949.23076923077,4079.48717948718,1665,1692,23.469,23.4107437133789,0,0,0,0,2/8/2015 6:19:08 AM,
45,0,0,4443.07692307692,3910.76923076923,4000.51282051282,4156.41025641026,4539.48717948718,4446.15384615385,4320.51282051282,4381.53846153846,4474.8717948718,4122.5641025641,4096.92307692308,4180.51282051282,3953.84615384615,4094.8717948718,1664,1690,23.476,23.4107437133789,0,0,0,0,2/8/2015 6:19:08 AM,
46,0,0,4462.5641025641,3924.10256410256,3986.66666666667,4151.79487179487,4548.71794871795,4462.5641025641,4321.02564102564,4381.02564102564,4478.46153846154,4116.41025641026,4098.46153846154,4175.38461538462,3955.89743589744,4115.38461538462,1664,1692,23.484,23.4107437133789,0,0,0,0,2/8/2015 6:19:08 AM,
47,0,0,4470.76923076923,3931.28205128205,3986.66666666667,4148.20512820513,4540.51282051282,4447.17948717949,4321.02564102564,4376.41025641026,4470.76923076923,4113.84615384615,4109.23076923077,4181.53846153846,3952.30769230769,4105.12820512821,1665,1691,23.492,23.4107437133789,0,0,0,0,2/8/2015 6:19:08 AM,
48,0,0,4457.4358974359,3926.15384615385,4002.05128205128,4153.84615384615,4528.20512820513,4436.41025641026,4318.97435897436,4371.28205128205,4462.5641025641,4117.94871794872,4108.20512820513,4185.64102564103,3956.92307692308,4105.12820512821,1663,1695,23.5,23.4107437133789,0,0,0,0,2/8/2015 6:19:08 AM,
49,0,0,4473.33333333333,3923.58974358974,4008.20512820513,4154.8717948718,4507.17948717949,4449.74358974359,4315.38461538462,4378.46153846154,4477.4358974359,4106.66666666667,4097.94871794872,4184.61538461538,3961.53846153846,4098.46153846154,1664,1694,23.508,23.4107437133789,0,0,0,0,2/8/2015 6:19:08 AM,
50,0,0,4497.94871794872,3915.38461538462,4003.58974358974,4140.51282051282,4502.5641025641,4461.53846153846,4312.30769230769,4381.53846153846,4477.94871794872,4101.02564102564,4094.35897435898,4189.74358974359,3954.8717948718,4082.05128205128,1664,1694,23.515,23.4107437133789,0,0,0,0,2/8/2015 6:19:08 AM,
51,0,0,4483.58974358974,3905.64102564103,3999.48717948718,4122.5641025641,4515.89743589744,4454.35897435897,4310.25641025641,4367.69230769231,4448.20512820513,4108.71794871795,4092.82051282051,4186.15384615385,3951.28205128205,4102.5641025641,1664,1693,23.523,23.4107437133789,0,0,0,0,2/8/2015 6:19:08 AM,
52,0,0,4451.28205128205,3906.15384615385,3992.30769230769,4116.92307692308,4513.33333333333,4435.89743589744,4308.20512820513,4372.82051282051,4452.30769230769,4104.10256410256,4093.33333333333,4172.30769230769,3949.23076923077,4127.17948717949,1664,1692,23.531,23.4107437133789,0,0,0,0,2/8/2015 6:19:08 AM,
53,0,0,4448.71794871795,3911.28205128205,3989.23076923077,4130.76923076923,4508.71794871795,4426.66666666667,4305.12820512821,4394.8717948718,4480.51282051282,4091.79487179487,4093.84615384615,4171.28205128205,3939.48717948718,4114.35897435897,1664,1692,23.539,23.4107437133789,0,0,0,0,2/8/2015 6:19:08 AM,
54,0,0,4477.4358974359,3915.89743589744,3986.15384615385,4143.07692307692,4519.48717948718,4429.23076923077,4302.5641025641,4386.66666666667,4454.8717948718,4083.58974358974,4088.20512820513,4175.38461538462,3941.53846153846,4109.74358974359,1664,1692,23.547,23.4107437133789,0,0,0,0,2/8/2015 6:19:08 AM,
55,0,0,4498.97435897436,3922.5641025641,3976.92307692308,4140.51282051282,4523.07692307692,4429.74358974359,4301.53846153846,4370.25641025641,4430.25641025641,4093.84615384615,4096.41025641026,4174.35897435897,3962.05128205128,4138.97435897436,1664,1693,23.555,23.4107437133789,0,0,0,0,2/8/2015 6:19:08 AM,
56,0,0,4488.71794871795,3923.58974358974,3975.38461538462,4134.8717948718,4522.5641025641,4427.17948717949,4302.05128205128,4381.02564102564,4448.71794871795,4110.25641025641,4109.23076923077,4170.76923076923,3973.33333333333,4156.41025641026,1664,1690,23.562,23.4107437133789,0,0,0,0,2/8/2015 6:19:08 AM,
57,0,0,4469.23076923077,3921.53846153846,3981.02564102564,4138.97435897436,4537.94871794872,4434.8717948718,4303.58974358974,4392.82051282051,4460.51282051282,4108.71794871795,4109.74358974359,4166.66666666667,3970.25641025641,4154.35897435897,1664,1691,23.57,23.5358505249023,0,0,0,0,2/8/2015 6:19:08 AM,
58,0,0,4470.76923076923,3924.10256410256,3985.64102564103,4144.61538461538,4548.20512820513,4460,4302.5641025641,4390.25641025641,4460,4111.79487179487,4106.15384615385,4173.33333333333,3974.8717948718,4146.66666666667,1665,1693,23.578,23.5358505249023,0,0,0,0,2/8/2015 6:19:08 AM,
59,0,0,4474.8717948718,3923.58974358974,3986.66666666667,4136.41025641026,4535.38461538462,4474.8717948718,4298.97435897436,4387.17948717949,4463.07692307692,4128.20512820513,4102.05128205128,4183.07692307692,3978.46153846154,4120,1664,1694,23.585,23.5358505249023,0,0,0,0,2/8/2015 6:19:08 AM,
60,0,0,4462.05128205128,3920,3982.05128205128,4134.8717948718,4524.10256410256,4467.17948717949,4296.92307692308,4385.12820512821,4453.33333333333,4126.66666666667,4096.92307692308,4178.97435897436,3965.64102564103,4107.69230769231,1666,1692,23.593,23.5358505249023,0,0,0,0,2/8/2015 6:19:08 AM,
61,0,0,4457.4358974359,3927.69230769231,3982.5641025641,4149.23076923077,4511.79487179487,4450.25641025641,4296.92307692308,4381.02564102564,4424.10256410256,4104.61538461538,4099.48717948718,4177.4358974359,3950.25641025641,4118.46153846154,1667,1692,23.6,23.5671272277832,0,0,0,0,2/8/2015 6:19:08 AM,
62,0,0,4474.35897435897,3929.74358974359,3991.28205128205,4145.12820512821,4498.46153846154,4434.8717948718,4301.02564102564,4383.07692307692,4406.15384615385,4100,4109.23076923077,4187.69230769231,3949.23076923077,4111.79487179487,1668,1692,23.608,23.5671272277832,0,0,0,0,2/8/2015 6:19:08 AM,
63,0,0,4474.35897435897,3913.33333333333,3991.28205128205,4124.10256410256,4516.92307692308,4449.23076923077,4303.58974358974,4394.35897435897,4432.82051282051,4115.38461538462,4109.23076923077,4188.71794871795,3960,4102.05128205128,1667,1690,23.616,23.5671272277832,0,0,0,0,2/8/2015 6:19:08 AM,
64,0,459,4459.48717948718,3913.33333333333,3989.23076923077,4127.69230769231,4555.89743589744,4471.79487179487,4302.05128205128,4403.58974358974,4473.33333333333,4129.74358974359,4095.38461538462,4182.05128205128,3973.33333333333,4114.8717948718,1667,1693,23.624,23.5671272277832,0,0,0,0,2/8/2015 6:19:08 AM,
65,0,446,4471.79487179487,3932.30769230769,4000.51282051282,4145.64102564103,4552.82051282051,4444.10256410256,4299.48717948718,4382.05128205128,4435.38461538462,4135.89743589744,4095.38461538462,4185.12820512821,3978.46153846154,4125.64102564103,1666,1693,23.632,23.5671272277832,0,0,0,0,2/8/2015 6:19:08 AM,
66,0,483,4503.07692307692,3931.79487179487,4002.5641025641,4138.46153846154,4525.12820512821,4420.51282051282,4300,4351.28205128205,4375.89743589744,4126.66666666667,4119.48717948718,4189.23076923077,3971.79487179487,4125.12820512821,1666,1693,23.64,23.5671272277832,0,0,0,0,2/8/2015 6:19:08 AM,
67,0,492,4510.25641025641,3929.23076923077,3991.28205128205,4130.25641025641,4547.17948717949,4453.33333333333,4300,4356.92307692308,4417.4358974359,4114.8717948718,4127.69230769231,4185.12820512821,3969.74358974359,4130.25641025641,1667,1692,23.648,23.5671272277832,0,0,0,0,2/8/2015 6:19:08 AM,
68,0,479,4492.30769230769,3942.05128205128,3986.15384615385,4147.69230769231,4567.69230769231,4468.71794871795,4298.97435897436,4373.33333333333,4465.12820512821,4118.46153846154,4107.17948717949,4174.35897435897,3976.92307692308,4132.82051282051,1665,1693,23.655,23.5671272277832,0,0,0,0,2/8/2015 6:19:08 AM,
69,0,439,4475.38461538462,3938.97435897436,3986.15384615385,4157.4358974359,4534.8717948718,4445.64102564103,4300,4367.69230769231,4429.74358974359,4124.10256410256,4095.38461538462,4167.17948717949,3971.28205128205,4115.38461538462,1665,1693,23.663,23.5671272277832,0,0,0,0,2/8/2015 6:19:08 AM,
70,0,483,4453.84615384615,3927.69230769231,3991.28205128205,4134.8717948718,4509.23076923077,4439.48717948718,4298.97435897436,4363.07692307692,4406.15384615385,4116.92307692308,4097.4358974359,4182.05128205128,3952.82051282051,4085.12820512821,1664,1693,23.671,23.5671272277832,0,0,0,0,2/8/2015 6:19:08 AM,
71,0,0,4449.74358974359,3927.69230769231,4002.05128205128,4117.94871794872,4523.07692307692,4443.07692307692,4299.48717948718,4369.23076923077,4432.30769230769,4114.8717948718,4108.71794871795,4195.38461538462,3956.41025641026,4087.17948717949,1665,1692,23.679,23.5671272277832,0,0,0,0,2/8/2015 6:19:08 AM,
72,0,407,4478.97435897436,3926.15384615385,3989.74358974359,4129.23076923077,4545.64102564103,4448.20512820513,4306.15384615385,4367.17948717949,4433.84615384615,4123.07692307692,4121.02564102564,4170.76923076923,3977.4358974359,4138.46153846154,1664,1690,23.687,23.5671272277832,0,0,0,0,2/8/2015 6:19:08 AM,
73,0,426,4492.30769230769,3930.76923076923,3970.25641025641,4141.02564102564,4566.66666666667,4460,4310.76923076923,4364.10256410256,4415.89743589744,4127.17948717949,4116.41025641026,4141.02564102564,3982.05128205128,4168.71794871795,1664,1689,23.694,23.6609592437744,0,0,0,0,2/8/2015 6:19:08 AM,
74,0,433,4467.69230769231,3944.61538461539,3985.64102564103,4138.97435897436,4577.94871794872,4466.15384615385,4311.28205128205,4382.05128205128,4433.84615384615,4116.92307692308,4111.79487179487,4147.17948717949,3976.92307692308,4139.48717948718,1665,1688,23.702,23.6609592437744,0,0,0,0,2/8/2015 6:19:08 AM,
75,0,456,4451.79487179487,3944.61538461539,4003.58974358974,4128.71794871795,4557.94871794872,4477.94871794872,4314.8717948718,4403.07692307692,4465.12820512821,4094.8717948718,4106.15384615385,4168.71794871795,3970.25641025641,4101.53846153846,1665,1690,23.71,23.6609592437744,0,0,0,0,2/8/2015 6:19:08 AM,
76,0,411,4465.12820512821,3934.35897435898,3990.76923076923,4120,4535.38461538462,4482.5641025641,4318.97435897436,4395.89743589744,4465.12820512821,4094.35897435898,4094.35897435898,4180,3958.46153846154,4085.64102564103,1667,1690,23.718,23.6609592437744,0,0,0,0,2/8/2015 6:19:08 AM,
77,0,441,4481.53846153846,3938.97435897436,3983.07692307692,4135.38461538462,4535.89743589744,4470.76923076923,4318.97435897436,4380,4456.41025641026,4118.97435897436,4102.05128205128,4178.97435897436,3964.61538461539,4085.64102564103,1667,1693,23.726,23.6609592437744,0,0,0,0,2/8/2015 6:19:08 AM,
78,0,433,4476.92307692308,3952.82051282051,3993.84615384615,4156.41025641026,4541.02564102564,4467.17948717949,4318.46153846154,4379.48717948718,4467.17948717949,4126.15384615385,4124.61538461538,4175.38461538462,3987.17948717949,4102.05128205128,1668,1692,23.733,23.6609592437744,0,0,0,0,2/8/2015 6:19:08 AM,
79,0,456,4463.07692307692,3953.84615384615,3996.92307692308,4146.66666666667,4552.82051282051,4475.38461538462,4319.48717948718,4384.10256410256,4480.51282051282,4119.48717948718,4126.15384615385,4176.41025641026,3994.8717948718,4124.61538461538,1667,1692,23.741,23.6609592437744,0,0,0,0,2/8/2015 6:19:08 AM,
80,0,411,4469.23076923077,3950.25641025641,3990.25641025641,4135.38461538462,4576.92307692308,4483.07692307692,4319.48717948718,4382.5641025641,4474.35897435897,4125.12820512821,4116.92307692308,4176.92307692308,3989.23076923077,4126.66666666667,1667,1691,23.749,23.6609592437744,0,0,0,0,2/8/2015 6:19:08 AM,
81,0,441,4475.38461538462,3952.30769230769,3988.20512820513,4138.97435897436,4568.71794871795,4465.12820512821,4320,4376.92307692308,4459.48717948718,4130.25641025641,4109.23076923077,4173.33333333333,3981.02564102564,4103.07692307692,1665,1692,23.757,23.6609592437744,0,0,0,0,2/8/2015 6:19:08 AM,
82,0,433,4462.5641025641,3943.58974358974,3992.82051282051,4130.25641025641,4520,4422.5641025641,4320,4376.41025641026,4444.61538461538,4115.89743589744,4094.35897435898,4178.46153846154,3966.15384615385,4093.84615384615,1665,1691,23.765,23.6609592437744,0,0,0,0,2/8/2015 6:19:08 AM,
83,0,456,4456.92307692308,3927.69230769231,3995.89743589744,4121.53846153846,4524.10256410256,4409.74358974359,4320,4380,4429.74358974359,4105.12820512821,4101.53846153846,4186.66666666667,3967.69230769231,4114.35897435897,1663,1694,23.773,23.6609592437744,0,0,0,0,2/8/2015 6:19:08 AM,
84,0,411,4460.51282051282,3929.74358974359,3990.25641025641,4124.10256410256,4562.5641025641,4430.76923076923,4320,4375.38461538462,4430.25641025641,4120,4122.05128205128,4187.17948717949,3985.12820512821,4116.92307692308,1663,1695,23.78,23.6609592437744,0,0,0,0,2/8/2015 6:19:08 AM,
85,0,441,4463.07692307692,3925.12820512821,3982.05128205128,4118.97435897436,4532.82051282051,4430.76923076923,4320,4371.28205128205,4436.41025641026,4119.48717948718,4112.30769230769,4192.82051282051,3976.41025641026,4098.46153846154,1662,1695,23.788,23.6609592437744,0,0,0,0,2/8/2015 6:19:08 AM,
86,0,433,4472.82051282051,3911.79487179487,3986.15384615385,4119.48717948718,4508.71794871795,4414.35897435897,4320,4388.71794871795,4443.07692307692,4102.05128205128,4106.66666666667,4203.07692307692,3962.5641025641,4109.74358974359,1662,1696,23.796,23.6609592437744,0,0,0,0,2/8/2015 6:19:08 AM,
87,0,456,4484.61538461538,3927.17948717949,4002.5641025641,4136.92307692308,4550.76923076923,4418.97435897436,4320,4406.66666666667,4466.66666666667,4119.48717948718,4123.58974358974,4213.33333333333,3990.76923076923,4144.61538461538,1662,1696,23.804,23.6609592437744,0,0,0,0,2/8/2015 6:19:08 AM,
88,0,411,4495.38461538462,3945.64102564103,4001.53846153846,4138.97435897436,4560,4431.28205128205,4318.46153846154,4401.02564102564,4483.07692307692,4142.5641025641,4120,4220.51282051282,4013.33333333333,4156.92307692308,1663,1695,23.812,23.6609592437744,0,0,0,0,2/8/2015 6:19:08 AM,
89,0,441,4508.71794871795,3946.15384615385,3983.58974358974,4135.38461538462,4529.74358974359,4429.23076923077,4317.94871794872,4393.84615384615,4467.17948717949,4131.28205128205,4112.30769230769,4217.94871794872,3995.89743589744,4162.05128205128,1661,1697,23.819,23.7860660552979,0,0,0,0,2/8/2015 6:19:08 AM,
90,0,433,4516.41025641026,3954.8717948718,3990.25641025641,4152.30769230769,4535.38461538462,4437.4358974359,4317.94871794872,4402.5641025641,4438.97435897436,4136.92307692308,4128.20512820513,4216.41025641026,3987.69230769231,4179.48717948718,1662,1696,23.827,23.7860660552979,0,0,0,0,2/8/2015 6:19:08 AM,
91,0,456,4507.69230769231,3952.82051282051,4009.23076923077,4156.41025641026,4546.66666666667,4449.74358974359,4316.92307692308,4407.17948717949,4417.4358974359,4163.58974358974,4121.53846153846,4223.07692307692,3992.82051282051,4166.66666666667,1662,1696,23.835,23.7860660552979,0,0,0,0,2/8/2015 6:19:08 AM,
92,0,411,4501.02564102564,3933.84615384615,3994.8717948718,4136.41025641026,4535.89743589744,4427.17948717949,4316.41025641026,4396.92307692308,4413.84615384615,4148.20512820513,4097.4358974359,4215.89743589744,3984.61538461539,4153.33333333333,1661,1696,23.843,23.7860660552979,0,0,0,0,2/8/2015 6:19:08 AM,
93,0,441,4515.89743589744,3942.5641025641,3978.97435897436,4134.8717948718,4542.05128205128,4409.74358974359,4318.97435897436,4406.15384615385,4442.5641025641,4121.53846153846,4112.82051282051,4201.02564102564,3991.79487179487,4195.89743589744,1660,1693,23.851,23.7860660552979,0,0,0,0,2/8/2015 6:19:08 AM,
94,0,433,4523.58974358974,3964.61538461539,3993.84615384615,4148.71794871795,4561.53846153846,4430.76923076923,4320.51282051282,4424.61538461538,4457.94871794872,4137.4358974359,4133.84615384615,4204.61538461538,4009.23076923077,4227.17948717949,1661,1693,23.86,23.7860660552979,0,0,0,0,2/8/2015 6:19:08 AM,
95,0,456,4507.69230769231,3962.05128205128,4002.5641025641,4140,4557.4358974359,4435.89743589744,4320,4420.51282051282,4446.15384615385,4159.48717948718,4117.94871794872,4217.94871794872,3995.38461538462,4182.5641025641,1661,1693,23.867,23.7860660552979,0,0,0,0,2/8/2015 6:19:08 AM,
96,0,411,4496.41025641026,3949.23076923077,3989.74358974359,4126.66666666667,4540,4425.12820512821,4320,4414.35897435897,4430.76923076923,4154.8717948718,4104.10256410256,4215.89743589744,3972.30769230769,4146.15384615385,1660,1694,23.875,23.7860660552979,0,0,0,0,2/8/2015 6:19:08 AM,
97,0,441,4491.28205128205,3938.97435897436,3978.97435897436,4132.30769230769,4532.82051282051,4449.23076923077,4320.51282051282,4415.38461538462,4407.17948717949,4151.28205128205,4116.92307692308,4198.46153846154,3983.07692307692,4175.89743589744,1662,1695,23.883,23.7860660552979,0,0,0,0,2/8/2015 6:19:09 AM,
98,0,433,4487.17948717949,3938.46153846154,3988.20512820513,4140,4538.46153846154,4483.07692307692,4320,4419.48717948718,4426.66666666667,4160.51282051282,4130.76923076923,4195.89743589744,4008.71794871795,4196.92307692308,1661,1696,23.89,23.7860660552979,0,0,0,0,2/8/2015 6:19:09 AM,
99,0,456,4498.97435897436,3955.38461538462,4000,4140.51282051282,4545.64102564103,4475.89743589744,4320,4428.20512820513,4469.23076923077,4150.76923076923,4125.12820512821,4211.79487179487,4003.07692307692,4172.30769230769,1662,1696,23.898,23.7860660552979,0,0,0,0,2/8/2015 6:19:09 AM,
100,0,411,4514.35897435897,3964.61538461539,3989.74358974359,4147.17948717949,4548.71794871795,4463.07692307692,4319.48717948718,4421.02564102564,4435.38461538462,4130.76923076923,4109.74358974359,4220,3973.84615384615,4151.28205128205,1663,1694,23.905,23.7860660552979,0,0,0,0,2/8/2015 6:19:09 AM,
101,0,441,4510.25641025641,3961.02564102564,3975.89743589744,4157.94871794872,4563.07692307692,4466.66666666667,4319.48717948718,4394.8717948718,4388.20512820513,4141.02564102564,4110.76923076923,4212.82051282051,3976.41025641026,4160.51282051282,1664,1692,23.913,23.7860660552979,0,0,0,0,2/8/2015 6:19:09 AM,
102,0,433,4504.61538461538,3964.61538461539,3981.53846153846,4157.4358974359,4576.41025641026,4464.10256410256,4320.51282051282,4385.12820512821,4410.76923076923,4163.07692307692,4132.30769230769,4203.58974358974,4002.5641025641,4176.92307692308,1663,1693,23.921,23.7860660552979,0,0,0,0,2/8/2015 6:19:09 AM,
103,0,456,4495.38461538462,3957.4358974359,3984.10256410256,4150.25641025641,4555.89743589744,4453.33333333333,4318.97435897436,4382.5641025641,4414.8717948718,4155.38461538462,4138.46153846154,4202.05128205128,3995.38461538462,4171.79487179487,1664,1695,23.929,23.7860660552979,0,0,0,0,2/8/2015 6:19:09 AM,
104,0,411,4478.97435897436,3938.46153846154,3976.92307692308,4154.8717948718,4528.20512820513,4465.64102564103,4319.48717948718,4370.76923076923,4392.82051282051,4129.74358974359,4127.17948717949,4198.97435897436,3969.74358974359,4149.74358974359,1664,1692,23.937,23.7860660552979,0,0,0,0,2/8/2015 6:19:09 AM,
105,0,441,4477.4358974359,3940,3968.71794871795,4157.4358974359,4530.76923076923,4483.07692307692,4326.66666666667,4368.20512820513,4412.30769230769,4121.53846153846,4120,4186.66666666667,3972.30769230769,4146.66666666667,1663,1692,23.947,23.9111728668213,0,0,0,0,2/8/2015 6:19:09 AM,
106,0,433,4474.8717948718,3956.92307692308,3962.05128205128,4142.5641025641,4532.82051282051,4471.79487179487,4334.35897435897,4367.69230769231,4417.4358974359,4122.5641025641,4113.84615384615,4181.02564102564,3980,4141.02564102564,1664,1691,23.954,23.9111728668213,0,0,0,0,2/8/2015 6:19:09 AM,
107,0,456,4462.5641025641,3946.66666666667,3965.64102564103,4139.48717948718,4499.48717948718,4456.92307692308,4334.35897435897,4362.5641025641,4396.41025641026,4121.53846153846,4101.53846153846,4190.25641025641,3962.5641025641,4107.69230769231,1663,1693,23.962,23.9111728668213,0,0,0,0,2/8/2015 6:19:09 AM,
108,0,411,4470.25641025641,3925.12820512821,3969.23076923077,4155.38461538462,4498.46153846154,4445.64102564103,4333.33333333333,4364.61538461538,4409.74358974359,4121.53846153846,4105.64102564103,4191.79487179487,3947.17948717949,4115.38461538462,1664,1694,23.97,23.9111728668213,0,0,0,0,2/8/2015 6:19:09 AM,
109,0,441,4474.35897435897,3927.69230769231,3958.46153846154,4151.28205128205,4548.71794871795,4430.76923076923,4335.89743589744,4370.25641025641,4436.41025641026,4112.82051282051,4117.4358974359,4181.53846153846,3955.38461538462,4164.10256410256,1664,1695,23.978,23.9111728668213,0,0,0,0,2/8/2015 6:19:09 AM,
110,0,433,4451.79487179487,3935.38461538462,3951.79487179487,4127.69230769231,4552.30769230769,4422.5641025641,4336.92307692308,4364.61538461538,4413.33333333333,4103.07692307692,4107.17948717949,4181.02564102564,3964.10256410256,4155.89743589744,1664,1694,23.986,23.9111728668213,0,0,0,0,2/8/2015 6:19:09 AM,
111,0,456,4452.30769230769,3931.79487179487,3958.97435897436,4124.61538461538,4504.61538461538,4413.84615384615,4336.41025641026,4351.28205128205,4371.79487179487,4105.12820512821,4098.46153846154,4189.23076923077,3950.25641025641,4103.58974358974,1663,1694,23.993,23.9111728668213,0,0,0,0,2/8/2015 6:19:09 AM,
112,0,411,4481.53846153846,3933.33333333333,3952.30769230769,4140.51282051282,4510.25641025641,4418.97435897436,4336.41025641026,4352.82051282051,4384.10256410256,4104.61538461538,4113.84615384615,4188.20512820513,3940,4114.8717948718,1665,1694,24.001,23.9111728668213,0,0,0,0,2/8/2015 6:19:09 AM,
113,0,441,4480.51282051282,3943.58974358974,3945.64102564103,4153.84615384615,4557.4358974359,4440,4336.41025641026,4364.61538461538,4424.61538461538,4107.17948717949,4126.15384615385,4178.97435897436,3955.38461538462,4183.07692307692,1665,1694,24.008,23.9111728668213,0,0,0,0,2/8/2015 6:19:09 AM,
114,0,433,4455.89743589744,3943.07692307692,3967.17948717949,4154.35897435897,4565.12820512821,4440.51282051282,4334.8717948718,4367.17948717949,4428.71794871795,4125.64102564103,4125.64102564103,4179.48717948718,3976.92307692308,4211.79487179487,1665,1695,24.016,23.9111728668213,0,0,0,0,2/8/2015 6:19:09 AM,
115,0,456,4460,3942.05128205128,3981.02564102564,4145.12820512821,4552.30769230769,4447.17948717949,4334.35897435897,4369.23076923077,4414.35897435897,4128.20512820513,4124.10256410256,4188.20512820513,3980.51282051282,4182.5641025641,1666,1695,24.024,23.9111728668213,0,0,0,0,2/8/2015 6:19:09 AM,
116,0,411,4475.38461538462,3949.23076923077,3960,4140.51282051282,4539.48717948718,4465.12820512821,4334.8717948718,4365.64102564103,4387.17948717949,4106.66666666667,4122.05128205128,4186.15384615385,3964.61538461539,4156.92307692308,1665,1695,24.032,23.9111728668213,0,0,0,0,2/8/2015 6:19:09 AM,
117,0,441,4466.15384615385,3944.61538461539,3949.23076923077,4139.48717948718,4529.74358974359,4428.71794871795,4334.8717948718,4355.89743589744,4366.15384615385,4105.12820512821,4120.51282051282,4180.51282051282,3951.79487179487,4146.15384615385,1666,1694,24.039,23.9111728668213,0,0,0,0,2/8/2015 6:19:09 AM,
118,0,433,4456.92307692308,3940.51282051282,3973.33333333333,4137.94871794872,4539.48717948718,4399.48717948718,4334.35897435897,4366.15384615385,4403.07692307692,4127.17948717949,4123.58974358974,4187.17948717949,3954.8717948718,4144.10256410256,1666,1695,24.047,23.9111728668213,0,0,0,0,2/8/2015 6:19:09 AM,
119,0,456,4463.58974358974,3940,3978.46153846154,4137.94871794872,4532.30769230769,4435.89743589744,4333.84615384615,4377.94871794872,4420.51282051282,4134.35897435897,4119.48717948718,4188.71794871795,3956.92307692308,4180.51282051282,1666,1695,24.056,23.9111728668213,0,0,0,0,2/8/2015 6:19:09 AM,
120,0,411,4458.97435897436,3945.12820512821,3969.23076923077,4142.5641025641,4515.89743589744,4455.89743589744,4333.33333333333,4367.69230769231,4390.25641025641,4111.28205128205,4118.46153846154,4184.61538461538,3950.76923076923,4181.53846153846,1665,1695,24.064,23.9111728668213,0,0,0,0,2/8/2015 6:19:09 AM,
121,0,441,4462.5641025641,3951.28205128205,3979.48717948718,4137.94871794872,4529.23076923077,4447.69230769231,4329.74358974359,4362.5641025641,4406.15384615385,4103.07692307692,4120.51282051282,4187.17948717949,3955.89743589744,4133.33333333333,1665,1694,24.072,24.0362815856934,0,0,0,0,2/8/2015 6:19:09 AM,
122,0,433,4490.76923076923,3950.25641025641,3977.4358974359,4128.20512820513,4541.02564102564,4456.92307692308,4326.15384615385,4365.12820512821,4432.82051282051,4127.17948717949,4111.28205128205,4181.53846153846,3958.46153846154,4157.94871794872,1665,1694,24.08,24.0362815856934,0,0,0,0,2/8/2015 6:19:09 AM,
123,0,456,4485.12820512821,3941.53846153846,3957.4358974359,4134.35897435897,4545.12820512821,4435.89743589744,4324.10256410256,4355.89743589744,4406.66666666667,4123.58974358974,4116.41025641026,4167.17948717949,3949.23076923077,4210.76923076923,1665,1693,24.087,24.0362815856934,0,0,0,0,2/8/2015 6:19:09 AM,
124,0,411,4452.30769230769,3940,3961.02564102564,4135.89743589744,4548.71794871795,4407.17948717949,4320.51282051282,4354.8717948718,4404.10256410256,4092.30769230769,4134.35897435897,4164.61538461538,3955.89743589744,4181.02564102564,1664,1692,24.094,24.0362815856934,0,0,0,0,2/8/2015 6:19:09 AM,
125,0,441,4462.05128205128,3951.28205128205,3982.5641025641,4125.12820512821,4542.5641025641,4445.12820512821,4318.46153846154,4372.30769230769,4447.69230769231,4096.92307692308,4141.53846153846,4180.51282051282,3975.38461538462,4155.38461538462,1664,1693,24.101,24.0675582885742,0,0,0,0,2/8/2015 6:19:09 AM,
126,0,433,4477.4358974359,3957.4358974359,3990.25641025641,4129.74358974359,4547.69230769231,4486.15384615385,4321.02564102564,4376.92307692308,4446.66666666667,4120.51282051282,4136.41025641026,4196.41025641026,3976.92307692308,4175.38461538462,1665,1693,24.109,24.0675582885742,0,0,0,0,2/8/2015 6:19:09 AM,
127,0,456,4461.02564102564,3957.94871794872,3992.30769230769,4141.53846153846,4553.84615384615,4480,4319.48717948718,4366.15384615385,4405.12820512821,4123.58974358974,4122.05128205128,4203.58974358974,3967.17948717949,4164.10256410256,1664,1692,24.117,24.0675582885742,0,0,0,0,2/8/2015 6:19:09 AM,
128,0,411,4460,3956.41025641026,3990.25641025641,4140.51282051282,4538.97435897436,4468.20512820513,4312.30769230769,4368.71794871795,4396.41025641026,4131.28205128205,4122.5641025641,4203.58974358974,3972.30769230769,4161.02564102564,1665,1691,24.126,24.0675582885742,0,0,0,0,2/8/2015 6:19:09 AM,
0,0,460,4477.94871794872,3958.97435897436,3988.71794871795,4144.10256410256,4530.25641025641,4458.46153846154,4307.69230769231,4382.05128205128,4429.74358974359,4139.48717948718,4151.79487179487,4201.53846153846,3985.12820512821,4194.35897435897,1664,1693,24.134,24.0675582885742,0,0,0,0,2/8/2015 6:19:09 AM,
1,0,447,4481.53846153846,3957.94871794872,3999.48717948718,4155.89743589744,4535.38461538462,4443.07692307692,4307.69230769231,4377.4358974359,4433.84615384615,4125.64102564103,4158.97435897436,4202.05128205128,3976.41025641026,4190.25641025641,1666,1692,24.141,24.0675582885742,0,0,0,0,2/8/2015 6:19:09 AM,
2,0,483,4475.38461538462,3947.69230769231,4000,4150.25641025641,4545.12820512821,4453.33333333333,4306.66666666667,4365.64102564103,4404.10256410256,4123.58974358974,4126.15384615385,4203.07692307692,3961.53846153846,4165.12820512821,1665,1693,24.149,24.0675582885742,0,0,0,0,2/8/2015 6:19:09 AM,
3,0,492,4473.33333333333,3947.69230769231,3987.69230769231,4135.89743589744,4567.17948717949,4485.12820512821,4302.5641025641,4369.74358974359,4412.82051282051,4139.48717948718,4118.97435897436,4203.58974358974,3974.8717948718,4174.35897435897,1665,1694,24.156,24.0675582885742,0,0,0,0,2/8/2015 6:19:09 AM,
4,0,479,4471.79487179487,3953.84615384615,3987.69230769231,4133.84615384615,4570.76923076923,4487.69230769231,4300.51282051282,4370.25641025641,4432.30769230769,4142.05128205128,4153.84615384615,4201.02564102564,3992.82051282051,4194.35897435897,1666,1693,24.164,24.0675582885742,0,0,0,0,2/8/2015 6:19:09 AM,
5,0,438,4473.84615384615,3958.97435897436,4006.66666666667,4138.46153846154,4530.76923076923,4457.94871794872,4296.41025641026,4364.61538461538,4418.97435897436,4128.20512820513,4163.07692307692,4204.10256410256,3984.10256410256,4189.23076923077,1665,1693,24.171,24.0675582885742,0,0,0,0,2/8/2015 6:19:09 AM,
6,0,483,4478.46153846154,3957.94871794872,4025.64102564103,4137.4358974359,4512.30769230769,4440,4284.61538461538,4363.58974358974,4385.12820512821,4117.94871794872,4137.4358974359,4218.97435897436,3967.69230769231,4177.4358974359,1664,1693,24.179,24.0675582885742,0,0,0,0,2/8/2015 6:19:09 AM,
7,0,0,4485.12820512821,3948.20512820513,4015.89743589744,4134.8717948718,4550.25641025641,4450.25641025641,4284.10256410256,4362.05128205128,4361.53846153846,4123.07692307692,4134.35897435897,4217.4358974359,3973.84615384615,4187.69230769231,1665,1693,24.187,24.0675582885742,0,0,0,0,2/8/2015 6:19:09 AM,
8,0,407,4495.38461538462,3951.28205128205,3993.33333333333,4143.07692307692,4586.66666666667,4462.05128205128,4301.02564102564,4368.71794871795,4393.84615384615,4141.53846153846,4148.20512820513,4198.97435897436,3991.79487179487,4204.61538461538,1664,1695,24.195,24.1613883972168,0,0,0,0,2/8/2015 6:19:09 AM,
9,0,426,4492.30769230769,3962.05128205128,4000,4141.02564102564,4567.17948717949,4470.25641025641,4308.20512820513,4378.97435897436,4442.5641025641,4143.07692307692,4143.07692307692,4202.05128205128,3986.15384615385,4203.07692307692,1664,1694,24.203,24.1613883972168,0,0,0,0,2/8/2015 6:19:09 AM,
10,0,433,4477.94871794872,3950.25641025641,4020,4123.07692307692,4526.66666666667,4485.12820512821,4302.05128205128,4373.84615384615,4440,4124.10256410256,4138.46153846154,4214.35897435897,3970.76923076923,4196.41025641026,1663,1693,24.21,24.1613883972168,0,0,0,0,2/8/2015 6:19:09 AM,
11,0,456,4464.61538461538,3933.84615384615,4009.23076923077,4121.02564102564,4520.51282051282,4474.8717948718,4302.05128205128,4361.53846153846,4408.71794871795,4116.41025641026,4152.30769230769,4206.66666666667,3977.4358974359,4203.07692307692,1663,1692,24.218,24.1613883972168,0,0,0,0,2/8/2015 6:19:09 AM,
12,0,411,4471.79487179487,3949.23076923077,3997.94871794872,4145.12820512821,4543.07692307692,4446.66666666667,4304.10256410256,4365.64102564103,4405.64102564103,4129.74358974359,4161.53846153846,4198.46153846154,3993.33333333333,4212.30769230769,1664,1693,24.226,24.1613883972168,0,0,0,0,2/8/2015 6:19:09 AM,
13,0,441,4493.33333333333,3966.66666666667,4011.28205128205,4149.23076923077,4570.25641025641,4462.05128205128,4301.53846153846,4380.51282051282,4431.28205128205,4138.97435897436,4154.35897435897,4200.51282051282,3992.30769230769,4197.4358974359,1664,1694,24.234,24.1613883972168,0,0,0,0,2/8/2015 6:19:09 AM,
14,0,433,4489.74358974359,3955.89743589744,4007.17948717949,4118.46153846154,4575.89743589744,4500.51282051282,4302.5641025641,4385.12820512821,4448.20512820513,4133.33333333333,4139.48717948718,4196.41025641026,3979.48717948718,4172.82051282051,1663,1695,24.242,24.1613883972168,0,0,0,0,2/8/2015 6:19:09 AM,
15,0,456,4471.79487179487,3942.5641025641,3991.28205128205,4109.74358974359,4548.71794871795,4492.82051282051,4303.07692307692,4372.82051282051,4427.17948717949,4124.61538461538,4131.79487179487,4198.97435897436,3970.25641025641,4161.53846153846,1663,1694,24.249,24.1613883972168,0,0,0,0,2/8/2015 6:19:09 AM,
16,0,0,4470.25641025641,3941.53846153846,3995.89743589744,4120.51282051282,4525.12820512821,4472.82051282051,4303.07692307692,4355.89743589744,4405.64102564103,4116.41025641026,4144.61538461538,4203.07692307692,3969.74358974359,4169.23076923077,1664,1692,24.257,24.1613883972168,0,0,0,0,2/8/2015 6:19:09 AM,
17,0,0,4470.76923076923,3944.10256410256,4004.10256410256,4120,4538.97435897436,4480.51282051282,4307.69230769231,4354.35897435897,4424.10256410256,4106.66666666667,4161.02564102564,4190.25641025641,3984.61538461539,4193.84615384615,1663,1694,24.265,24.1613883972168,0,0,0,0,2/8/2015 6:19:09 AM,
18,0,0,4450.76923076923,3941.53846153846,3997.94871794872,4115.89743589744,4544.61538461538,4463.58974358974,4312.30769230769,4356.41025641026,4413.84615384615,4102.5641025641,4146.15384615385,4185.64102564103,3984.10256410256,4186.66666666667,1664,1694,24.273,24.1613883972168,0,0,0,0,2/8/2015 6:19:09 AM,
19,0,0,4434.35897435897,3935.38461538462,3992.30769230769,4109.74358974359,4522.5641025641,4448.20512820513,4312.82051282051,4353.33333333333,4382.05128205128,4112.30769230769,4122.5641025641,4198.97435897436,3959.48717948718,4136.41025641026,1663,1695,24.282,24.1613883972168,0,0,0,0,2/8/2015 6:19:09 AM,
20,0,0,4452.30769230769,3939.48717948718,4000,4104.61538461538,4523.58974358974,4475.89743589744,4312.82051282051,4353.84615384615,4396.41025641026,4132.82051282051,4135.89743589744,4202.5641025641,3961.02564102564,4141.02564102564,1663,1694,24.29,24.1613883972168,0,0,0,0,2/8/2015 6:19:09 AM,
21,0,0,4481.02564102564,3953.84615384615,4008.71794871795,4116.41025641026,4542.05128205128,4495.38461538462,4312.82051282051,4355.38461538462,4423.58974358974,4138.97435897436,4163.07692307692,4200.51282051282,3990.76923076923,4205.64102564103,1663,1694,24.297,24.1613883972168,0,0,0,0,2/8/2015 6:19:09 AM,
22,0,0,4480,3957.94871794872,4004.10256410256,4122.5641025641,4540,4494.35897435897,4310.25641025641,4353.84615384615,4435.89743589744,4130.25641025641,4157.4358974359,4196.92307692308,3993.84615384615,4216.92307692308,1663,1694,24.305,24.1613883972168,0,0,0,0,2/8/2015 6:19:09 AM,
23,0,0,4457.94871794872,3949.74358974359,3990.76923076923,4104.61538461538,4536.41025641026,4483.07692307692,4310.76923076923,4350.76923076923,4439.48717948718,4123.07692307692,4138.97435897436,4186.66666666667,3973.33333333333,4185.64102564103,1663,1693,24.313,24.1613883972168,0,0,0,0,2/8/2015 6:19:09 AM,
24,0,0,4458.97435897436,3950.76923076923,3989.23076923077,4101.02564102564,4543.58974358974,4458.46153846154,4312.30769230769,4348.20512820513,4418.97435897436,4112.82051282051,4146.66666666667,4186.15384615385,3974.35897435898,4171.28205128205,1664,1693,24.323,24.2864971160889,0,0,0,0,2/8/2015 6:19:09 AM,
25,0,0,4466.15384615385,3955.89743589744,3996.41025641026,4109.74358974359,4535.89743589744,4465.12820512821,4313.33333333333,4349.74358974359,4394.35897435897,4106.15384615385,4148.20512820513,4199.48717948718,3978.97435897436,4159.48717948718,1664,1691,24.329,24.2864971160889,0,0,0,0,2/8/2015 6:19:09 AM,
26,0,0,4457.4358974359,3953.33333333333,3997.94871794872,4104.61538461538,4526.66666666667,4503.58974358974,4315.89743589744,4357.94871794872,4400.51282051282,4108.71794871795,4143.58974358974,4204.61538461538,3971.79487179487,4160.51282051282,1664,1691,24.336,24.2864971160889,0,0,0,0,2/8/2015 6:19:09 AM,
27,0,0,4455.38461538462,3954.35897435898,4002.5641025641,4100.51282051282,4522.05128205128,4486.66666666667,4318.97435897436,4366.15384615385,4414.35897435897,4110.25641025641,4152.82051282051,4202.5641025641,3977.4358974359,4175.38461538462,1664,1690,24.343,24.2864971160889,0,0,0,0,2/8/2015 6:19:09 AM,
28,0,0,4457.4358974359,3957.4358974359,4005.12820512821,4094.8717948718,4515.38461538462,4454.35897435897,4319.48717948718,4369.74358974359,4424.10256410256,4105.12820512821,4148.20512820513,4202.05128205128,3975.38461538462,4166.15384615385,1663,1692,24.351,24.2864971160889,0,0,0,0,2/8/2015 6:19:09 AM,
29,0,0,4466.15384615385,3957.4358974359,4005.64102564103,4090.76923076923,4536.41025641026,4475.38461538462,4319.48717948718,4375.89743589744,4433.33333333333,4100.51282051282,4138.97435897436,4201.53846153846,3957.4358974359,4164.61538461538,1665,1692,24.359,24.2864971160889,0,0,0,0,2/8/2015 6:19:09 AM,
30,0,0,4481.53846153846,3954.8717948718,4016.92307692308,4098.46153846154,4555.38461538462,4478.97435897436,4319.48717948718,4378.46153846154,4415.38461538462,4098.97435897436,4149.74358974359,4201.53846153846,3965.12820512821,4189.23076923077,1664,1693,24.367,24.2864971160889,0,0,0,0,2/8/2015 6:19:09 AM,
31,0,0,4489.74358974359,3954.35897435898,4019.48717948718,4104.10256410256,4548.71794871795,4474.8717948718,4318.97435897436,4381.02564102564,4403.58974358974,4101.02564102564,4163.07692307692,4208.71794871795,3991.79487179487,4215.38461538462,1664,1695,24.376,24.2864971160889,0,0,0,0,2/8/2015 6:19:09 AM,
32,0,0,4493.84615384615,3958.97435897436,4004.10256410256,4092.30769230769,4538.46153846154,4494.35897435897,4318.46153846154,4383.07692307692,4414.8717948718,4111.79487179487,4157.4358974359,4215.38461538462,3990.25641025641,4213.84615384615,1664,1694,24.382,24.2864971160889,0,0,0,0,2/8/2015 6:19:09 AM,
33,0,0,4485.64102564103,3951.79487179487,4003.07692307692,4082.5641025641,4524.10256410256,4475.38461538462,4318.97435897436,4367.69230769231,4406.15384615385,4110.76923076923,4151.28205128205,4216.41025641026,3967.69230769231,4178.46153846154,1664,1695,24.39,24.2864971160889,0,0,0,0,2/8/2015 6:19:09 AM,
34,0,0,4470.76923076923,3940,4015.38461538462,4091.28205128205,4524.61538461538,4446.66666666667,4318.46153846154,4351.79487179487,4395.38461538462,4109.23076923077,4155.38461538462,4210.25641025641,3965.12820512821,4168.71794871795,1664,1692,24.398,24.2864971160889,0,0,0,0,2/8/2015 6:19:09 AM,
35,0,0,4478.97435897436,3949.23076923077,4013.84615384615,4105.12820512821,4559.48717948718,4460,4318.97435897436,4357.4358974359,4412.30769230769,4122.05128205128,4150.76923076923,4210.25641025641,3980,4195.38461538462,1664,1692,24.406,24.2864971160889,0,0,0,0,2/8/2015 6:19:09 AM,
36,0,0,4493.84615384615,3963.07692307692,4009.23076923077,4109.74358974359,4574.35897435897,4467.69230769231,4319.48717948718,4367.17948717949,4425.12820512821,4130.25641025641,4154.8717948718,4214.8717948718,3990.25641025641,4221.02564102564,1664,1689,24.414,24.2864971160889,0,0,0,0,2/8/2015 6:19:09 AM,
37,0,0,4483.58974358974,3961.02564102564,4015.89743589744,4096.92307692308,4541.02564102564,4456.92307692308,4320,4366.15384615385,4425.64102564103,4127.17948717949,4166.15384615385,4209.23076923077,3992.30769230769,4227.69230769231,1664,1690,24.422,24.2864971160889,0,0,0,0,2/8/2015 6:19:09 AM,
38,0,0,4475.38461538462,3956.41025641026,4014.8717948718,4084.10256410256,4520.51282051282,4473.33333333333,4319.48717948718,4367.69230769231,4433.84615384615,4115.38461538462,4165.64102564103,4200.51282051282,3988.20512820513,4211.79487179487,1664,1687,24.431,24.2864971160889,0,0,0,0,2/8/2015 6:19:09 AM,
39,0,0,4484.61538461538,3949.74358974359,4009.74358974359,4089.23076923077,4520.51282051282,4483.07692307692,4319.48717948718,4369.23076923077,4418.46153846154,4102.05128205128,4160,4199.48717948718,3980.51282051282,4189.23076923077,1664,1689,24.439,24.2864971160889,0,0,0,0,2/8/2015 6:19:09 AM,
40,0,0,4475.89743589744,3942.05128205128,4012.30769230769,4094.8717948718,4521.53846153846,4438.97435897436,4319.48717948718,4360.51282051282,4384.61538461538,4092.30769230769,4157.94871794872,4208.20512820513,3975.89743589744,4170.76923076923,1665,1688,24.447,24.4116039276123,0,0,0,0,2/8/2015 6:19:09 AM,
41,0,0,4457.94871794872,3941.53846153846,4009.23076923077,4072.30769230769,4532.30769230769,4406.66666666667,4319.48717948718,4353.84615384615,4378.97435897436,4097.4358974359,4153.33333333333,4213.84615384615,3974.35897435898,4150.25641025641,1664,1690,24.454,24.4116039276123,0,0,0,0,2/8/2015 6:19:09 AM,
42,0,0,4454.8717948718,3938.97435897436,4005.12820512821,4038.46153846154,4536.41025641026,4438.46153846154,4319.48717948718,4365.12820512821,4410.76923076923,4108.20512820513,4147.69230769231,4205.12820512821,3966.66666666667,4147.69230769231,1664,1691,24.461,24.4116039276123,0,0,0,0,2/8/2015 6:19:09 AM,
43,0,0,4463.07692307692,3936.92307692308,4013.84615384615,4047.17948717949,4517.4358974359,4474.35897435897,4320,4378.97435897436,4438.97435897436,4103.58974358974,4151.79487179487,4195.89743589744,3955.38461538462,4168.71794871795,1664,1691,24.468,24.4116039276123,0,0,0,0,2/8/2015 6:19:09 AM,
44,0,0,4478.46153846154,3949.74358974359,4022.5641025641,4086.66666666667,4498.46153846154,4457.94871794872,4320,4372.82051282051,4426.66666666667,4089.23076923077,4151.28205128205,4203.58974358974,3960.51282051282,4175.38461538462,1664,1692,24.476,24.4116039276123,0,0,0,0,2/8/2015 6:19:09 AM,
45,0,0,4492.30769230769,3959.48717948718,4020,4095.89743589744,4524.10256410256,4443.58974358974,4319.48717948718,4363.58974358974,4418.46153846154,4091.79487179487,4154.35897435897,4210.25641025641,3976.41025641026,4191.79487179487,1665,1693,24.485,24.4116039276123,0,0,0,0,2/8/2015 6:19:09 AM,
46,0,0,4485.12820512821,3958.46153846154,4018.46153846154,4076.41025641026,4578.46153846154,4460,4320,4366.66666666667,4433.33333333333,4109.74358974359,4163.58974358974,4201.02564102564,3984.61538461539,4217.4358974359,1664,1694,24.493,24.4116039276123,0,0,0,0,2/8/2015 6:19:09 AM,
47,0,0,4474.8717948718,3953.84615384615,4024.61538461539,4068.20512820513,4569.74358974359,4436.92307692308,4320,4361.53846153846,4429.74358974359,4106.15384615385,4155.38461538462,4206.15384615385,3977.4358974359,4177.4358974359,1665,1693,24.501,24.4116039276123,0,0,0,0,2/8/2015 6:19:09 AM,
48,0,0,4485.64102564103,3944.61538461539,4029.23076923077,4076.41025641026,4505.12820512821,4395.38461538462,4315.89743589744,4350.76923076923,4416.41025641026,4091.28205128205,4149.23076923077,4217.4358974359,3970.25641025641,4143.58974358974,1664,1695,24.508,24.4116039276123,0,0,0,0,2/8/2015 6:19:09 AM,
49,0,0,4496.92307692308,3940,4028.71794871795,4091.79487179487,4497.94871794872,4416.41025641026,4311.79487179487,4362.5641025641,4431.79487179487,4096.92307692308,4158.97435897436,4206.66666666667,3982.5641025641,4204.10256410256,1665,1694,24.517,24.4116039276123,0,0,0,0,2/8/2015 6:19:09 AM,
50,0,0,4488.20512820513,3944.61538461539,4017.94871794872,4090.76923076923,4547.69230769231,4462.5641025641,4311.79487179487,4379.48717948718,4440.51282051282,4101.53846153846,4160.51282051282,4194.35897435897,3986.15384615385,4250.76923076923,1665,1695,24.524,24.4116039276123,0,0,0,0,2/8/2015 6:19:09 AM,
51,0,0,4475.38461538462,3943.07692307692,4011.28205128205,4068.20512820513,4561.53846153846,4442.05128205128,4312.82051282051,4376.92307692308,4416.92307692308,4090.25641025641,4146.15384615385,4196.92307692308,3964.61538461539,4202.05128205128,1665,1695,24.533,24.4116039276123,0,0,0,0,2/8/2015 6:19:09 AM,
52,0,0,4468.20512820513,3935.89743589744,4020.51282051282,4067.69230769231,4534.35897435897,4404.61538461538,4312.82051282051,4372.82051282051,4411.79487179487,4093.84615384615,4153.84615384615,4197.4358974359,3959.48717948718,4148.71794871795,1663,1694,24.54,24.4116039276123,0,0,0,0,2/8/2015 6:19:09 AM,
53,0,0,4474.35897435897,3941.53846153846,4028.71794871795,4081.53846153846,4524.61538461538,4428.20512820513,4313.33333333333,4382.5641025641,4436.92307692308,4107.69230769231,4169.23076923077,4203.58974358974,3977.94871794872,4148.20512820513,1664,1693,24.549,24.4116039276123,0,0,0,0,2/8/2015 6:19:09 AM,
54,0,0,4485.12820512821,3943.07692307692,4036.92307692308,4082.5641025641,4522.05128205128,4466.15384615385,4313.33333333333,4393.84615384615,4446.66666666667,4098.97435897436,4151.79487179487,4215.89743589744,3975.89743589744,4156.41025641026,1663,1692,24.556,24.4116039276123,0,0,0,0,2/8/2015 6:19:09 AM,
55,0,0,4475.38461538462,3929.23076923077,4046.66666666667,4084.61538461539,4508.71794871795,4466.66666666667,4311.79487179487,4398.46153846154,4426.15384615385,4084.10256410256,4142.05128205128,4209.74358974359,3963.58974358974,4178.97435897436,1661,1694,24.564,24.4116039276123,0,0,0,0,2/8/2015 6:19:09 AM,
56,0,0,4477.94871794872,3932.82051282051,4023.07692307692,4091.79487179487,4536.41025641026,4448.71794871795,4313.84615384615,4394.8717948718,4420,4092.30769230769,4172.82051282051,4197.4358974359,3982.5641025641,4220.51282051282,1662,1692,24.572,24.5367107391357,0,0,0,0,2/8/2015 6:19:09 AM,
57,0,0,4506.66666666667,3958.97435897436,3974.35897435898,4090.25641025641,4577.4358974359,4442.05128205128,4320,4383.58974358974,4431.79487179487,4095.38461538462,4184.61538461538,4202.05128205128,3997.94871794872,4231.28205128205,1661,1694,24.58,24.5367107391357,0,0,0,0,2/8/2015 6:19:09 AM,
58,0,0,4504.10256410256,3963.07692307692,3949.74358974359,4085.12820512821,4555.89743589744,4443.58974358974,4321.53846153846,4377.94871794872,4424.10256410256,4080.51282051282,4165.64102564103,4206.15384615385,3980.51282051282,4213.33333333333,1661,1694,24.588,24.5367107391357,0,0,0,0,2/8/2015 6:19:09 AM,
59,0,0,4474.8717948718,3944.10256410256,3947.17948717949,4079.48717948718,4519.48717948718,4439.48717948718,4318.46153846154,4387.17948717949,4416.41025641026,4085.64102564103,4167.17948717949,4199.48717948718,3970.76923076923,4185.12820512821,1661,1694,24.596,24.5367107391357,0,0,0,0,2/8/2015 6:19:09 AM,
60,0,0,4471.28205128205,3935.38461538462,3942.05128205128,4074.8717948718,4527.69230769231,4417.4358974359,4318.46153846154,4394.8717948718,4412.82051282051,4094.8717948718,4166.66666666667,4201.53846153846,3975.38461538462,4164.10256410256,1662,1693,24.603,24.5679874420166,0,0,0,0,2/8/2015 6:19:09 AM,
61,0,0,4481.02564102564,3933.84615384615,3937.94871794872,4075.89743589744,4531.28205128205,4407.17948717949,4320.51282051282,4394.8717948718,4405.12820512821,4081.53846153846,4152.82051282051,4203.07692307692,3967.69230769231,4163.07692307692,1662,1694,24.609,24.5679874420166,0,0,0,0,2/8/2015 6:19:09 AM,
62,0,0,4468.20512820513,3926.15384615385,3940.51282051282,4070.76923076923,4517.94871794872,4440,4320,4395.38461538462,4414.35897435897,4071.79487179487,4155.89743589744,4197.4358974359,3953.84615384615,4156.41025641026,1663,1695,24.617,24.5679874420166,0,0,0,0,2/8/2015 6:19:09 AM,
63,0,0,4456.92307692308,3927.17948717949,3949.74358974359,4063.07692307692,4522.5641025641,4470.76923076923,4317.94871794872,4405.12820512821,4423.58974358974,4072.82051282051,4163.07692307692,4204.61538461538,3955.38461538462,4148.20512820513,1664,1694,24.625,24.5679874420166,0,0,0,0,2/8/2015 6:19:09 AM,
64,0,460,4464.10256410256,3936.92307692308,3952.82051282051,4061.02564102564,4522.5641025641,4450.76923076923,4317.94871794872,4410.76923076923,4412.82051282051,4072.30769230769,4165.64102564103,4211.79487179487,3969.23076923077,4176.41025641026,1665,1693,24.633,24.5679874420166,0,0,0,0,2/8/2015 6:19:09 AM,
65,0,447,4462.05128205128,3932.30769230769,3941.02564102564,4054.35897435898,4517.4358974359,4424.10256410256,4318.46153846154,4406.15384615385,4413.84615384615,4080.51282051282,4172.82051282051,4202.05128205128,3975.38461538462,4198.46153846154,1665,1694,24.642,24.5679874420166,0,0,0,0,2/8/2015 6:19:09 AM,
66,0,473,4447.17948717949,3922.5641025641,3936.92307692308,4053.84615384615,4529.23076923077,4449.23076923077,4315.89743589744,4405.12820512821,4431.79487179487,4082.5641025641,4165.64102564103,4195.38461538462,3965.12820512821,4173.84615384615,1665,1694,24.65,24.5679874420166,0,0,0,0,2/8/2015 6:19:09 AM,
67,0,492,4450.76923076923,3925.64102564103,3942.5641025641,4062.5641025641,4533.33333333333,4470.25641025641,4312.30769230769,4400.51282051282,4431.28205128205,4071.28205128205,4146.15384615385,4199.48717948718,3952.30769230769,4164.61538461538,1664,1695,24.658,24.5679874420166,0,0,0,0,2/8/2015 6:19:09 AM,
68,0,479,4473.33333333333,3928.20512820513,3941.53846153846,4062.5641025641,4524.10256410256,4441.53846153846,4311.79487179487,4385.12820512821,4416.41025641026,4069.23076923077,4153.33333333333,4201.02564102564,3960,4184.61538461538,1665,1695,24.664,24.5679874420166,0,0,0,0,2/8/2015 6:19:09 AM,
69,0,438,4478.97435897436,3926.66666666667,3940.51282051282,4063.07692307692,4522.5641025641,4428.71794871795,4312.82051282051,4374.8717948718,4418.46153846154,4067.17948717949,4172.82051282051,4201.02564102564,3971.79487179487,4195.89743589744,1664,1695,24.672,24.5679874420166,0,0,0,0,2/8/2015 6:19:09 AM,
70,0,482,4466.15384615385,3929.74358974359,3942.5641025641,4067.69230769231,4523.07692307692,4450.25641025641,4316.41025641026,4376.41025641026,4423.07692307692,4057.94871794872,4165.12820512821,4202.5641025641,3963.07692307692,4198.97435897436,1664,1693,24.68,24.5679874420166,0,0,0,0,2/8/2015 6:19:09 AM,
71,0,0,4459.48717948718,3921.53846153846,3940,4057.4358974359,4512.82051282051,4442.05128205128,4321.02564102564,4369.74358974359,4397.94871794872,4062.05128205128,4153.84615384615,4200,3951.28205128205,4181.53846153846,1663,1692,24.687,24.5679874420166,0,0,0,0,2/8/2015 6:19:09 AM,
72,0,407,4457.94871794872,3905.12820512821,3940.51282051282,4049.74358974359,4501.02564102564,4406.66666666667,4321.53846153846,4362.05128205128,4378.97435897436,4068.20512820513,4156.41025641026,4195.38461538462,3952.30769230769,4155.38461538462,1663,1693,24.697,24.6618194580078,0,0,0,0,2/8/2015 6:19:09 AM,
73,0,426,4461.53846153846,3911.79487179487,3943.07692307692,4064.10256410256,4513.33333333333,4411.28205128205,4321.02564102564,4374.8717948718,4415.89743589744,4055.89743589744,4154.35897435897,4198.46153846154,3965.12820512821,4165.12820512821,1663,1691,24.704,24.6618194580078,0,0,0,0,2/8/2015 6:19:09 AM,
74,0,433,4462.05128205128,3927.17948717949,3941.02564102564,4068.71794871795,4524.61538461538,4434.8717948718,4321.53846153846,4387.69230769231,4440.51282051282,4039.48717948718,4151.79487179487,4202.05128205128,3973.33333333333,4195.89743589744,1662,1692,24.712,24.6618194580078,0,0,0,0,2/8/2015 6:19:09 AM,
75,0,456,4460,3926.15384615385,3942.05128205128,4056.41025641026,4506.66666666667,4436.92307692308,4321.53846153846,4382.05128205128,4411.79487179487,4040,4166.66666666667,4193.33333333333,3967.69230769231,4198.46153846154,1664,1691,24.72,24.6618194580078,0,0,0,0,2/8/2015 6:19:09 AM,
76,0,416,4461.02564102564,3922.5641025641,3953.33333333333,4060.51282051282,4489.23076923077,4429.74358974359,4321.02564102564,4377.4358974359,4400,4049.23076923077,4177.4358974359,4189.74358974359,3960,4173.84615384615,1662,1693,24.727,24.6618194580078,0,0,0,0,2/8/2015 6:19:09 AM,
77,0,441,4452.82051282051,3923.07692307692,3961.53846153846,4067.17948717949,4501.02564102564,4412.82051282051,4321.53846153846,4376.92307692308,4395.38461538462,4044.10256410256,4162.5641025641,4202.5641025641,3955.38461538462,4148.20512820513,1663,1694,24.736,24.6618194580078,0,0,0,0,2/8/2015 6:19:09 AM,
78,0,433,4437.94871794872,3923.58974358974,3958.97435897436,4056.92307692308,4518.46153846154,4409.74358974359,4320.51282051282,4371.79487179487,4384.61538461538,4032.82051282051,4151.79487179487,4207.17948717949,3959.48717948718,4153.33333333333,1662,1695,24.743,24.6618194580078,0,0,0,0,2/8/2015 6:19:09 AM,
79,0,456,4447.69230769231,3926.66666666667,3955.89743589744,4054.35897435898,4526.66666666667,4432.82051282051,4318.97435897436,4374.8717948718,4406.15384615385,4034.8717948718,4166.15384615385,4199.48717948718,3973.84615384615,4183.58974358974,1662,1694,24.752,24.6618194580078,0,0,0,0,2/8/2015 6:19:09 AM,
80,0,416,4474.35897435897,3927.69230769231,3950.25641025641,4067.17948717949,4516.41025641026,4439.48717948718,4318.97435897436,4386.15384615385,4417.94871794872,4041.53846153846,4173.84615384615,4197.94871794872,3975.89743589744,4188.20512820513,1662,1695,24.759,24.6618194580078,0,0,0,0,2/8/2015 6:19:09 AM,
81,0,441,4475.89743589744,3928.20512820513,3953.84615384615,4072.30769230769,4497.94871794872,4429.74358974359,4318.97435897436,4382.05128205128,4395.89743589744,4056.41025641026,4161.02564102564,4204.61538461538,3962.5641025641,4168.71794871795,1663,1694,24.767,24.6618194580078,0,0,0,0,2/8/2015 6:19:09 AM,
82,0,433,4468.20512820513,3934.35897435898,3975.38461538462,4075.89743589744,4523.58974358974,4429.23076923077,4317.94871794872,4372.82051282051,4393.84615384615,4070.25641025641,4168.20512820513,4216.92307692308,3966.66666666667,4171.79487179487,1662,1693,24.774,24.6618194580078,0,0,0,0,2/8/2015 6:19:09 AM,
83,0,456,4478.97435897436,3943.07692307692,3980,4084.10256410256,4562.05128205128,4418.97435897436,4317.94871794872,4372.82051282051,4402.05128205128,4072.82051282051,4190.76923076923,4218.97435897436,3988.20512820513,4201.53846153846,1663,1694,24.782,24.6618194580078,0,0,0,0,2/8/2015 6:19:09 AM,
84,0,416,4485.64102564103,3948.20512820513,3963.58974358974,4075.38461538462,4539.48717948718,4414.8717948718,4317.94871794872,4370.25641025641,4388.20512820513,4076.92307692308,4180,4207.17948717949,3991.79487179487,4212.82051282051,1663,1694,24.791,24.6618194580078,0,0,0,0,2/8/2015 6:19:09 AM,
85,0,441,4478.46153846154,3950.76923076923,3958.46153846154,4069.23076923077,4501.02564102564,4413.33333333333,4317.94871794872,4366.15384615385,4391.28205128205,4072.30769230769,4160.51282051282,4204.61538461538,3973.84615384615,4186.66666666667,1662,1695,24.799,24.6618194580078,0,0,0,0,2/8/2015 6:19:09 AM,
86,0,433,4469.74358974359,3946.66666666667,3960.51282051282,4083.07692307692,4497.4358974359,4385.64102564103,4317.94871794872,4366.15384615385,4399.48717948718,4061.53846153846,4169.23076923077,4201.53846153846,3966.66666666667,4172.82051282051,1663,1694,24.807,24.6618194580078,0,0,0,0,2/8/2015 6:19:09 AM,
87,0,456,4461.53846153846,3941.53846153846,3959.48717948718,4085.64102564103,4519.48717948718,4398.46153846154,4317.94871794872,4368.71794871795,4386.66666666667,4063.07692307692,4176.41025641026,4202.05128205128,3975.38461538462,4168.71794871795,1661,1695,24.815,24.6618194580078,0,0,0,0,2/8/2015 6:19:09 AM,
88,0,416,4458.97435897436,3945.64102564103,3965.12820512821,4073.33333333333,4545.12820512821,4450.76923076923,4317.94871794872,4374.35897435897,4394.8717948718,4067.17948717949,4167.17948717949,4216.41025641026,3980.51282051282,4150.25641025641,1662,1696,24.821,24.7869262695313,0,0,0,0,2/8/2015 6:19:09 AM,
89,0,441,4462.5641025641,3946.66666666667,3961.02564102564,4066.66666666667,4534.8717948718,4434.8717948718,4317.94871794872,4382.5641025641,4418.97435897436,4063.58974358974,4170.25641025641,4213.84615384615,3972.82051282051,4161.02564102564,1661,1696,24.829,24.7869262695313,0,0,0,0,2/8/2015 6:19:09 AM,
90,0,433,4457.4358974359,3943.07692307692,3942.5641025641,4057.4358974359,4508.20512820513,4398.97435897436,4318.46153846154,4381.53846153846,4407.69230769231,4057.4358974359,4179.48717948718,4194.8717948718,3965.64102564103,4198.97435897436,1662,1695,24.837,24.7869262695313,0,0,0,0,2/8/2015 6:19:09 AM,
91,0,456,4441.53846153846,3939.48717948718,3942.5641025641,4049.74358974359,4511.79487179487,4425.12820512821,4318.97435897436,4381.02564102564,4395.38461538462,4046.15384615385,4184.10256410256,4198.97435897436,3975.38461538462,4198.97435897436,1661,1695,24.845,24.7869262695313,0,0,0,0,2/8/2015 6:19:09 AM,
92,0,416,4440,3932.30769230769,3957.94871794872,4064.61538461539,4516.92307692308,4432.30769230769,4318.97435897436,4394.35897435897,4429.74358974359,4039.48717948718,4183.58974358974,4216.92307692308,3989.23076923077,4169.74358974359,1662,1694,24.853,24.7869262695313,0,0,0,0,2/8/2015 6:19:09 AM,
93,0,441,4456.92307692308,3931.28205128205,3963.07692307692,4073.84615384615,4515.38461538462,4405.64102564103,4318.97435897436,4404.10256410256,4454.35897435897,4045.64102564103,4175.89743589744,4222.5641025641,3981.02564102564,4147.69230769231,1662,1693,24.86,24.7869262695313,0,0,0,0,2/8/2015 6:19:09 AM,
94,0,433,4471.28205128205,3942.05128205128,3955.89743589744,4059.48717948718,4517.94871794872,4414.8717948718,4319.48717948718,4392.30769230769,4422.5641025641,4045.12820512821,4173.84615384615,4225.12820512821,3960,4142.05128205128,1662,1693,24.868,24.7869262695313,0,0,0,0,2/8/2015 6:19:09 AM,
95,0,456,4475.38461538462,3947.69230769231,3948.71794871795,4051.28205128205,4513.33333333333,4414.35897435897,4320.51282051282,4377.94871794872,4388.71794871795,4049.23076923077,4187.69230769231,4220.51282051282,3965.64102564103,4174.35897435897,1662,1693,24.875,24.7869262695313,0,0,0,0,2/8/2015 6:19:09 AM,
96,0,416,4475.38461538462,3943.07692307692,3951.28205128205,4059.48717948718,4515.38461538462,4377.4358974359,4318.97435897436,4385.64102564103,4407.17948717949,4057.94871794872,4188.71794871795,4210.25641025641,3984.10256410256,4209.74358974359,1662,1694,24.883,24.7869262695313,0,0,0,0,2/8/2015 6:19:10 AM,
97,0,441,4474.35897435897,3943.07692307692,3965.12820512821,4065.64102564103,4521.02564102564,4383.07692307692,4317.4358974359,4403.58974358974,4447.69230769231,4055.38461538462,4172.82051282051,4218.97435897436,3992.82051282051,4204.10256410256,1664,1692,24.891,24.7869262695313,0,0,0,0,2/8/2015 6:19:10 AM,
98,0,433,4475.38461538462,3956.41025641026,3973.84615384615,4067.69230769231,4515.89743589744,4433.33333333333,4317.94871794872,4403.07692307692,4443.58974358974,4049.74358974359,4178.46153846154,4235.38461538462,3988.71794871795,4174.35897435897,1663,1693,24.899,24.7869262695313,0,0,0,0,2/8/2015 6:19:10 AM,
99,0,456,4473.33333333333,3961.53846153846,3964.61538461539,4063.07692307692,4513.84615384615,4441.53846153846,4318.97435897436,4391.79487179487,4409.74358974359,4048.71794871795,4190.25641025641,4230.76923076923,3967.17948717949,4176.92307692308,1664,1694,24.906,24.7869262695313,0,0,0,0,2/8/2015 6:19:10 AM,
100,0,416,4460,3948.71794871795,3956.41025641026,4051.28205128205,4528.71794871795,4411.28205128205,4317.94871794872,4394.35897435897,4420,4052.82051282051,4185.12820512821,4215.38461538462,3957.4358974359,4211.28205128205,1664,1694,24.914,24.7869262695313,0,0,0,0,2/8/2015 6:19:10 AM,
101,0,441,4455.89743589744,3948.71794871795,3958.97435897436,4048.71794871795,4535.89743589744,4402.05128205128,4317.94871794872,4401.53846153846,4453.84615384615,4061.53846153846,4182.5641025641,4212.82051282051,3978.97435897436,4212.30769230769,1664,1693,24.922,24.7869262695313,0,0,0,0,2/8/2015 6:19:10 AM,
102,0,433,4478.46153846154,3965.64102564103,3957.4358974359,4066.15384615385,4531.79487179487,4396.92307692308,4317.94871794872,4390.76923076923,4441.02564102564,4063.58974358974,4186.15384615385,4218.46153846154,3990.25641025641,4181.02564102564,1665,1691,24.93,24.7869262695313,0,0,0,0,2/8/2015 6:19:10 AM,
103,0,456,4495.38461538462,3964.61538461539,3956.41025641026,4072.30769230769,4516.92307692308,4381.53846153846,4318.46153846154,4379.48717948718,4415.89743589744,4054.35897435898,4184.61538461538,4216.41025641026,3969.23076923077,4172.30769230769,1664,1691,24.938,24.7869262695313,0,0,0,0,2/8/2015 6:19:10 AM,
104,0,416,4483.07692307692,3952.30769230769,3967.69230769231,4057.94871794872,4503.58974358974,4407.69230769231,4319.48717948718,4386.66666666667,4424.10256410256,4047.69230769231,4182.05128205128,4222.5641025641,3956.92307692308,4166.66666666667,1664,1690,24.945,24.9120330810547,0,0,0,0,2/8/2015 6:19:10 AM,
105,0,441,4474.8717948718,3956.92307692308,3975.38461538462,4052.30769230769,4513.84615384615,4460.51282051282,4318.97435897436,4398.46153846154,4429.74358974359,4053.33333333333,4184.10256410256,4232.30769230769,3972.30769230769,4162.5641025641,1664,1690,24.953,24.9120330810547,0,0,0,0,2/8/2015 6:19:10 AM,
106,0,433,4478.46153846154,3962.05128205128,3971.28205128205,4066.66666666667,4525.12820512821,4458.46153846154,4318.46153846154,4405.12820512821,4427.69230769231,4063.58974358974,4184.61538461538,4225.12820512821,3986.66666666667,4204.10256410256,1664,1689,24.961,24.9120330810547,0,0,0,0,2/8/2015 6:19:10 AM,
107,0,456,4478.46153846154,3961.53846153846,3973.84615384615,4068.71794871795,4525.12820512821,4417.4358974359,4318.97435897436,4402.5641025641,4440.51282051282,4070.76923076923,4187.69230769231,4216.92307692308,3983.58974358974,4229.23076923077,1663,1690,24.969,24.9120330810547,0,0,0,0,2/8/2015 6:19:10 AM,
108,0,416,4481.53846153846,3963.07692307692,3974.8717948718,4056.41025641026,4520,4407.69230769231,4318.97435897436,4386.66666666667,4435.38461538462,4076.92307692308,4187.69230769231,4216.41025641026,3971.79487179487,4193.84615384615,1664,1689,24.977,24.9120330810547,0,0,0,0,2/8/2015 6:19:10 AM,
109,0,441,4486.66666666667,3959.48717948718,3970.25641025641,4060.51282051282,4518.97435897436,4414.35897435897,4318.46153846154,4377.94871794872,4407.69230769231,4075.89743589744,4177.94871794872,4213.84615384615,3968.20512820513,4168.20512820513,1663,1690,24.985,24.9120330810547,0,0,0,0,2/8/2015 6:19:10 AM,
110,0,433,4492.82051282051,3961.02564102564,3972.82051282051,4075.89743589744,4528.20512820513,4413.84615384615,4318.97435897436,4391.79487179487,4412.30769230769,4065.64102564103,4177.4358974359,4216.41025641026,3980,4172.82051282051,1663,1690,24.992,24.9120330810547,0,0,0,0,2/8/2015 6:19:10 AM,
