COUNTER,INTERPOLATED,RAW_CQ,AF3,F7,F3, FC5, T7, P7, O1, O2,P8, T8, FC6, F4,F8, AF4,GYROX, GYROY, TIMESTAMP, ES_TIMESTAMPFUNC_ID, FUNC_VALUE, MARKER, SYNC_SIGNAL,DateTime
28,0,0,4500,4131.79487179487,4012.30769230769,4370.76923076923,4560,4392.30769230769,4317.94871794872,4397.94871794872,4641.53846153846,4105.12820512821,4299.48717948718,4196.92307692308,3983.07692307692,4228.20512820513,1663,1693,32.148,32.0587997436523,0,0,0,0,2/8/2015 6:20:48 AM,
29,0,0,4530.25641025641,4142.05128205128,4009.23076923077,4385.12820512821,4573.84615384615,4397.4358974359,4317.94871794872,4394.35897435897,4637.4358974359,4106.66666666667,4314.35897435897,4198.97435897436,3993.84615384615,4241.53846153846,1662,1694,32.155,32.0587997436523,0,0,0,0,2/8/2015 6:20:48 AM,
30,0,0,4516.92307692308,4142.5641025641,4003.58974358974,4395.38461538462,4560,4405.12820512821,4317.94871794872,4396.92307692308,4631.28205128205,4102.05128205128,4318.97435897436,4200,3987.17948717949,4178.97435897436,1663,1695,32.163,32.0587997436523,0,0,0,0,2/8/2015 6:20:48 AM,
31,0,0,4489.23076923077,4134.35897435897,4002.5641025641,4384.10256410256,4533.84615384615,4409.74358974359,4318.46153846154,4401.02564102564,4634.8717948718,4106.15384615385,4309.74358974359,4191.79487179487,3983.07692307692,4154.8717948718,1663,1693,32.171,32.0587997436523,0,0,0,0,2/8/2015 6:20:48 AM,
32,0,0,4492.30769230769,4130.25641025641,4007.17948717949,4380,4528.20512820513,4403.58974358974,4318.46153846154,4403.58974358974,4643.58974358974,4108.20512820513,4310.25641025641,4183.58974358974,3993.84615384615,4223.58974358974,1662,1694,32.179,32.1526298522949,0,0,0,0,2/8/2015 6:20:48 AM,
33,0,0,4495.38461538462,4129.74358974359,4016.92307692308,4379.48717948718,4549.74358974359,4401.02564102564,4317.94871794872,4408.71794871795,4643.07692307692,4103.58974358974,4313.84615384615,4189.23076923077,3997.4358974359,4245.64102564103,1663,1692,32.186,32.1526298522949,0,0,0,0,2/8/2015 6:20:48 AM,
34,0,0,4491.79487179487,4124.61538461538,4021.53846153846,4373.84615384615,4558.46153846154,4408.20512820513,4318.46153846154,4414.35897435897,4641.02564102564,4108.71794871795,4310.76923076923,4202.5641025641,3987.17948717949,4178.97435897436,1663,1692,32.194,32.1526298522949,0,0,0,0,2/8/2015 6:20:48 AM,
35,0,0,4502.05128205128,4118.46153846154,4017.94871794872,4375.89743589744,4540,4408.20512820513,4318.97435897436,4420.51282051282,4641.02564102564,4117.4358974359,4310.76923076923,4200.51282051282,3980.51282051282,4148.71794871795,1664,1690,32.202,32.1526298522949,0,0,0,0,2/8/2015 6:20:48 AM,
36,0,0,4511.79487179487,4124.10256410256,4006.66666666667,4378.46153846154,4540,4400,4315.38461538462,4427.69230769231,4639.48717948718,4111.28205128205,4311.28205128205,4187.17948717949,3985.12820512821,4195.89743589744,1663,1692,32.21,32.1526298522949,0,0,0,0,2/8/2015 6:20:48 AM,
37,0,0,4507.17948717949,4136.41025641026,3990.25641025641,4378.46153846154,4569.23076923077,4402.05128205128,4311.79487179487,4426.66666666667,4642.5641025641,4106.15384615385,4306.66666666667,4180,3988.20512820513,4232.82051282051,1664,1691,32.218,32.1526298522949,0,0,0,0,2/8/2015 6:20:48 AM,
38,0,0,4501.02564102564,4137.94871794872,3998.97435897436,4383.58974358974,4578.97435897436,4417.94871794872,4312.82051282051,4427.69230769231,4648.20512820513,4117.94871794872,4313.33333333333,4190.25641025641,3987.17948717949,4209.74358974359,1663,1692,32.226,32.1526298522949,0,0,0,0,2/8/2015 6:20:48 AM,
39,0,0,4517.4358974359,4136.92307692308,4031.79487179487,4392.82051282051,4571.28205128205,4431.28205128205,4313.84615384615,4440,4649.23076923077,4123.58974358974,4331.28205128205,4207.17948717949,3994.8717948718,4177.94871794872,1664,1691,32.233,32.1526298522949,0,0,0,0,2/8/2015 6:20:48 AM,
40,0,0,4527.69230769231,4143.07692307692,4035.89743589744,4400,4574.35897435897,4431.28205128205,4312.30769230769,4446.15384615385,4652.82051282051,4121.02564102564,4328.71794871795,4205.64102564103,3999.48717948718,4208.20512820513,1664,1691,32.241,32.1526298522949,0,0,0,0,2/8/2015 6:20:48 AM,
41,0,0,4509.74358974359,4143.07692307692,4007.17948717949,4400.51282051282,4572.30769230769,4426.15384615385,4313.33333333333,4442.5641025641,4657.94871794872,4122.05128205128,4307.69230769231,4188.71794871795,3991.79487179487,4240.51282051282,1663,1693,32.249,32.1526298522949,0,0,0,0,2/8/2015 6:20:48 AM,
42,0,0,4500.51282051282,4141.02564102564,4000,4387.17948717949,4562.5641025641,4426.66666666667,4317.4358974359,4443.58974358974,4652.30769230769,4112.82051282051,4306.66666666667,4182.05128205128,3986.66666666667,4207.17948717949,1664,1693,32.257,32.1526298522949,0,0,0,0,2/8/2015 6:20:48 AM,
43,0,0,4503.07692307692,4134.8717948718,4013.33333333333,4370.25641025641,4549.23076923077,4430.25641025641,4320,4443.58974358974,4641.02564102564,4098.46153846154,4320.51282051282,4187.17948717949,3985.12820512821,4189.74358974359,1663,1694,32.265,32.1526298522949,0,0,0,0,2/8/2015 6:20:48 AM,
44,0,0,4493.84615384615,4120.51282051282,4006.15384615385,4367.69230769231,4538.46153846154,4420,4319.48717948718,4440.51282051282,4638.46153846154,4104.10256410256,4317.94871794872,4187.17948717949,3973.33333333333,4204.61538461538,1664,1693,32.272,32.1526298522949,0,0,0,0,2/8/2015 6:20:48 AM,
45,0,0,4490.76923076923,4119.48717948718,3993.33333333333,4376.41025641026,4553.84615384615,4406.66666666667,4318.46153846154,4439.48717948718,4646.15384615385,4114.35897435897,4305.12820512821,4180,3968.20512820513,4184.61538461538,1663,1693,32.28,32.1526298522949,0,0,0,0,2/8/2015 6:20:48 AM,
46,0,0,4505.64102564103,4136.41025641026,4005.12820512821,4389.23076923077,4578.46153846154,4414.8717948718,4319.48717948718,4441.02564102564,4649.23076923077,4111.79487179487,4304.61538461538,4181.02564102564,3979.48717948718,4170.25641025641,1664,1694,32.288,32.1526298522949,0,0,0,0,2/8/2015 6:20:48 AM,
47,0,0,4510.76923076923,4142.05128205128,4013.84615384615,4389.23076923077,4576.92307692308,4432.82051282051,4317.94871794872,4441.53846153846,4646.15384615385,4105.12820512821,4310.76923076923,4193.84615384615,3984.10256410256,4195.89743589744,1664,1695,32.296,32.1526298522949,0,0,0,0,2/8/2015 6:20:48 AM,
48,0,0,4494.8717948718,4135.38461538462,4004.61538461539,4382.05128205128,4557.94871794872,4432.30769230769,4314.35897435897,4440,4644.61538461538,4100.51282051282,4315.89743589744,4193.33333333333,3987.69230769231,4207.17948717949,1664,1694,32.304,32.2777404785156,0,0,0,0,2/8/2015 6:20:48 AM,
49,0,0,4477.4358974359,4139.48717948718,4006.15384615385,4383.07692307692,4555.89743589744,4426.15384615385,4312.30769230769,4433.33333333333,4640.51282051282,4100,4320.51282051282,4183.07692307692,3994.8717948718,4200.51282051282,1664,1694,32.312,32.2777404785156,0,0,0,0,2/8/2015 6:20:48 AM,
50,0,0,4481.53846153846,4140.51282051282,4013.33333333333,4382.05128205128,4557.4358974359,4428.20512820513,4312.30769230769,4427.17948717949,4633.84615384615,4105.12820512821,4317.4358974359,4192.30769230769,3981.02564102564,4196.92307692308,1665,1693,32.319,32.2777404785156,0,0,0,0,2/8/2015 6:20:48 AM,
51,0,0,4506.66666666667,4135.38461538462,4006.66666666667,4383.58974358974,4552.82051282051,4428.20512820513,4312.82051282051,4433.33333333333,4638.46153846154,4105.12820512821,4310.76923076923,4204.61538461538,3970.25641025641,4193.84615384615,1665,1692,32.327,32.2777404785156,0,0,0,0,2/8/2015 6:20:48 AM,
52,0,0,4514.35897435897,4142.05128205128,3997.4358974359,4392.30769230769,4563.58974358974,4428.71794871795,4313.33333333333,4441.53846153846,4650.25641025641,4101.02564102564,4317.94871794872,4199.48717948718,3988.71794871795,4180.51282051282,1664,1694,32.335,32.2777404785156,0,0,0,0,2/8/2015 6:20:48 AM,
53,0,0,4495.89743589744,4146.66666666667,4006.15384615385,4387.69230769231,4559.48717948718,4426.15384615385,4313.84615384615,4435.38461538462,4648.71794871795,4095.89743589744,4322.05128205128,4200.51282051282,3994.35897435898,4162.5641025641,1665,1692,32.343,32.2777404785156,0,0,0,0,2/8/2015 6:20:48 AM,
54,0,0,4481.53846153846,4137.94871794872,4017.4358974359,4383.58974358974,4540.51282051282,4416.41025641026,4313.84615384615,4429.23076923077,4640.51282051282,4090.25641025641,4309.74358974359,4206.15384615385,3981.02564102564,4170.76923076923,1665,1694,32.351,32.2777404785156,0,0,0,0,2/8/2015 6:20:48 AM,
55,0,0,4493.84615384615,4135.89743589744,4004.10256410256,4394.35897435897,4554.35897435897,4409.23076923077,4313.84615384615,4431.79487179487,4638.97435897436,4089.23076923077,4312.82051282051,4192.82051282051,3987.17948717949,4197.94871794872,1665,1693,32.358,32.2777404785156,0,0,0,0,2/8/2015 6:20:48 AM,
56,0,0,4517.4358974359,4142.05128205128,3986.66666666667,4393.33333333333,4575.38461538462,4408.71794871795,4313.84615384615,4430.76923076923,4642.5641025641,4090.25641025641,4330.25641025641,4181.53846153846,3993.84615384615,4198.46153846154,1665,1693,32.366,32.2777404785156,0,0,0,0,2/8/2015 6:20:48 AM,
57,0,0,4508.71794871795,4138.46153846154,3992.82051282051,4378.97435897436,4560,4412.82051282051,4313.84615384615,4432.82051282051,4647.69230769231,4095.38461538462,4323.58974358974,4190.76923076923,3985.64102564103,4181.02564102564,1665,1694,32.374,32.2777404785156,0,0,0,0,2/8/2015 6:20:48 AM,
58,0,0,4487.69230769231,4132.82051282051,3999.48717948718,4380,4542.5641025641,4415.38461538462,4313.84615384615,4440,4648.71794871795,4104.61538461538,4309.23076923077,4203.58974358974,3985.12820512821,4167.69230769231,1664,1694,32.382,32.2777404785156,0,0,0,0,2/8/2015 6:20:48 AM,
59,0,0,4488.71794871795,4137.4358974359,3990.25641025641,4386.15384615385,4538.46153846154,4412.30769230769,4313.84615384615,4434.35897435897,4644.10256410256,4103.07692307692,4317.94871794872,4197.94871794872,3986.66666666667,4154.35897435897,1665,1695,32.39,32.2777404785156,0,0,0,0,2/8/2015 6:20:48 AM,
60,0,0,4493.84615384615,4136.41025641026,3992.82051282051,4382.05128205128,4530.25641025641,4415.38461538462,4313.84615384615,4425.12820512821,4639.48717948718,4094.35897435898,4326.15384615385,4184.61538461538,3984.61538461539,4162.05128205128,1665,1695,32.398,32.2777404785156,0,0,0,0,2/8/2015 6:20:48 AM,
61,0,0,4495.89743589744,4131.28205128205,4009.23076923077,4381.02564102564,4531.79487179487,4427.17948717949,4313.84615384615,4427.69230769231,4641.53846153846,4100,4324.10256410256,4188.20512820513,3992.82051282051,4172.82051282051,1665,1696,32.405,32.2777404785156,0,0,0,0,2/8/2015 6:20:48 AM,
62,0,0,4504.10256410256,4131.79487179487,4005.64102564103,4380.51282051282,4541.02564102564,4429.74358974359,4313.84615384615,4428.20512820513,4645.12820512821,4109.74358974359,4315.89743589744,4200.51282051282,3989.74358974359,4161.02564102564,1664,1695,32.413,32.2777404785156,0,0,0,0,2/8/2015 6:20:48 AM,
63,0,0,4513.33333333333,4135.38461538462,3992.82051282051,4378.46153846154,4556.92307692308,4426.66666666667,4313.84615384615,4420.51282051282,4647.17948717949,4103.58974358974,4305.64102564103,4202.05128205128,3973.84615384615,4176.41025641026,1665,1696,32.421,32.2777404785156,0,0,0,0,2/8/2015 6:20:48 AM,
64,0,449,4526.66666666667,4138.97435897436,3995.38461538462,4381.53846153846,4573.33333333333,4430.76923076923,4313.84615384615,4419.48717948718,4653.33333333333,4105.64102564103,4321.53846153846,4196.41025641026,3981.02564102564,4217.94871794872,1665,1693,32.429,32.4028472900391,0,0,0,0,2/8/2015 6:20:48 AM,
65,0,441,4526.15384615385,4140,4001.02564102564,4388.71794871795,4560,4431.79487179487,4313.84615384615,4417.94871794872,4653.84615384615,4123.07692307692,4345.12820512821,4196.92307692308,4002.5641025641,4221.53846153846,1664,1696,32.437,32.4028472900391,0,0,0,0,2/8/2015 6:20:48 AM,
66,0,468,4502.05128205128,4138.46153846154,3998.97435897436,4388.71794871795,4534.35897435897,4425.12820512821,4313.84615384615,4414.35897435897,4646.15384615385,4124.61538461538,4326.66666666667,4199.48717948718,3997.94871794872,4191.79487179487,1665,1695,32.445,32.4028472900391,0,0,0,0,2/8/2015 6:20:48 AM,
67,0,491,4511.79487179487,4137.4358974359,3998.97435897436,4382.5641025641,4532.30769230769,4423.07692307692,4313.84615384615,4420.51282051282,4648.71794871795,4110.25641025641,4306.15384615385,4200,3986.66666666667,4188.71794871795,1664,1694,32.452,32.4028472900391,0,0,0,0,2/8/2015 6:20:48 AM,
68,0,475,4542.05128205128,4136.92307692308,4005.12820512821,4386.66666666667,4539.48717948718,4430.25641025641,4313.84615384615,4426.15384615385,4657.94871794872,4107.69230769231,4328.71794871795,4198.97435897436,3993.84615384615,4216.92307692308,1665,1695,32.46,32.4028472900391,0,0,0,0,2/8/2015 6:20:48 AM,
69,0,463,4528.71794871795,4142.5641025641,4005.64102564103,4395.89743589744,4540,4441.53846153846,4313.84615384615,4423.07692307692,4654.8717948718,4112.30769230769,4345.12820512821,4196.41025641026,4001.02564102564,4224.10256410256,1664,1694,32.468,32.4028472900391,0,0,0,0,2/8/2015 6:20:48 AM,
70,0,480,4513.84615384615,4153.84615384615,4001.53846153846,4396.92307692308,4541.02564102564,4445.12820512821,4313.84615384615,4421.53846153846,4648.20512820513,4111.79487179487,4332.30769230769,4196.41025641026,4003.07692307692,4201.53846153846,1664,1694,32.476,32.4028472900391,0,0,0,0,2/8/2015 6:20:48 AM,
71,0,0,4522.5641025641,4155.38461538462,4005.64102564103,4392.30769230769,4537.94871794872,4444.61538461538,4313.84615384615,4428.71794871795,4656.92307692308,4117.94871794872,4328.20512820513,4203.07692307692,4009.74358974359,4183.07692307692,1664,1692,32.484,32.4028472900391,0,0,0,0,2/8/2015 6:20:48 AM,
72,0,410,4520,4148.20512820513,4015.38461538462,4392.82051282051,4533.33333333333,4442.5641025641,4313.84615384615,4429.74358974359,4663.58974358974,4126.15384615385,4334.35897435897,4213.33333333333,4008.71794871795,4170.25641025641,1663,1691,32.491,32.4028472900391,0,0,0,0,2/8/2015 6:20:48 AM,
73,0,426,4523.07692307692,4155.89743589744,4018.46153846154,4401.53846153846,4540.51282051282,4437.94871794872,4313.84615384615,4422.5641025641,4655.38461538462,4120,4337.4358974359,4216.41025641026,4000.51282051282,4165.64102564103,1664,1692,32.499,32.4028472900391,0,0,0,0,2/8/2015 6:20:48 AM,
74,0,423,4553.84615384615,4172.82051282051,4020,4410.25641025641,4546.15384615385,4438.46153846154,4313.84615384615,4418.97435897436,4646.66666666667,4109.23076923077,4340,4217.4358974359,4014.8717948718,4201.53846153846,1664,1692,32.507,32.4028472900391,0,0,0,0,2/8/2015 6:20:48 AM,
75,0,455,4578.97435897436,4180.51282051282,4034.8717948718,4417.4358974359,4530.76923076923,4437.4358974359,4313.84615384615,4418.97435897436,4646.66666666667,4107.17948717949,4351.28205128205,4230.25641025641,4048.20512820513,4256.92307692308,1664,1692,32.515,32.4028472900391,0,0,0,0,2/8/2015 6:20:48 AM,
76,0,408,4591.79487179487,4192.30769230769,4045.64102564103,4418.46153846154,4522.05128205128,4428.20512820513,4313.84615384615,4417.94871794872,4649.74358974359,4112.82051282051,4366.15384615385,4245.12820512821,4063.58974358974,4281.53846153846,1664,1692,32.523,32.4028472900391,0,0,0,0,2/8/2015 6:20:48 AM,
77,0,437,4604.61538461538,4201.02564102564,4047.69230769231,4420,4543.07692307692,4425.12820512821,4313.84615384615,4414.35897435897,4652.30769230769,4117.4358974359,4368.20512820513,4247.69230769231,4063.07692307692,4304.10256410256,1664,1692,32.531,32.4028472900391,0,0,0,0,2/8/2015 6:20:48 AM,
78,0,423,4611.28205128205,4197.4358974359,4059.48717948718,4421.53846153846,4548.71794871795,4429.23076923077,4313.84615384615,4412.30769230769,4645.12820512821,4112.30769230769,4367.17948717949,4253.33333333333,4073.33333333333,4320.51282051282,1664,1693,32.538,32.4028472900391,0,0,0,0,2/8/2015 6:20:48 AM,
79,0,455,4636.92307692308,4199.48717948718,4069.23076923077,4418.97435897436,4524.61538461538,4425.12820512821,4313.84615384615,4412.30769230769,4638.97435897436,4106.66666666667,4378.97435897436,4269.74358974359,4080,4313.84615384615,1664,1692,32.546,32.4028472900391,0,0,0,0,2/8/2015 6:20:48 AM,
80,0,408,4667.17948717949,4201.53846153846,4063.58974358974,4418.46153846154,4524.10256410256,4416.92307692308,4313.84615384615,4413.33333333333,4649.23076923077,4112.82051282051,4378.46153846154,4275.89743589744,4076.92307692308,4330.25641025641,1664,1693,32.554,32.5279541015625,0,0,0,0,2/8/2015 6:20:48 AM,
81,0,437,4661.02564102564,4188.20512820513,4060.51282051282,4418.46153846154,4543.07692307692,4415.89743589744,4313.84615384615,4415.89743589744,4657.94871794872,4125.64102564103,4360,4265.64102564103,4084.61538461539,4371.79487179487,1664,1692,32.562,32.5279541015625,0,0,0,0,2/8/2015 6:20:48 AM,
82,0,423,4647.69230769231,4181.53846153846,4058.97435897436,4413.84615384615,4544.10256410256,4412.82051282051,4313.84615384615,4413.33333333333,4651.28205128205,4123.58974358974,4356.41025641026,4262.05128205128,4092.82051282051,4388.71794871795,1664,1695,32.57,32.5279541015625,0,0,0,0,2/8/2015 6:20:48 AM,
83,0,455,4648.20512820513,4183.07692307692,4044.61538461539,4409.74358974359,4537.4358974359,4405.64102564103,4313.84615384615,4407.69230769231,4642.5641025641,4106.15384615385,4372.82051282051,4265.64102564103,4088.71794871795,4369.23076923077,1664,1693,32.577,32.5279541015625,0,0,0,0,2/8/2015 6:20:48 AM,
84,0,408,4638.97435897436,4175.89743589744,4042.05128205128,4414.8717948718,4538.97435897436,4404.61538461538,4313.84615384615,4407.69230769231,4644.10256410256,4096.41025641026,4384.61538461538,4261.53846153846,4092.30769230769,4342.5641025641,1663,1695,32.585,32.5592308044434,0,0,0,0,2/8/2015 6:20:48 AM,
85,0,437,4627.17948717949,4172.82051282051,4050.76923076923,4412.30769230769,4555.38461538462,4411.79487179487,4313.84615384615,4411.79487179487,4648.71794871795,4105.12820512821,4384.10256410256,4255.38461538462,4097.4358974359,4343.58974358974,1665,1694,32.593,32.5592308044434,0,0,0,0,2/8/2015 6:20:48 AM,
86,0,423,4630.25641025641,4178.46153846154,4042.05128205128,4400,4573.84615384615,4418.97435897436,4313.84615384615,4408.71794871795,4646.66666666667,4121.02564102564,4375.89743589744,4249.74358974359,4090.76923076923,4358.97435897436,1665,1693,32.601,32.5592308044434,0,0,0,0,2/8/2015 6:20:48 AM,
87,0,455,4606.66666666667,4171.79487179487,4024.61538461539,4398.97435897436,4555.38461538462,4419.48717948718,4313.84615384615,4404.61538461538,4648.71794871795,4126.66666666667,4364.10256410256,4246.66666666667,4081.53846153846,4338.46153846154,1664,1694,32.609,32.5592308044434,0,0,0,0,2/8/2015 6:20:48 AM,
88,0,408,4568.71794871795,4149.74358974359,4024.10256410256,4397.94871794872,4512.82051282051,4408.71794871795,4313.84615384615,4403.07692307692,4654.8717948718,4124.61538461538,4357.94871794872,4248.71794871795,4070.25641025641,4285.64102564103,1664,1693,32.617,32.5592308044434,0,0,0,0,2/8/2015 6:20:48 AM,
89,0,437,4575.38461538462,4132.82051282051,4026.15384615385,4387.69230769231,4516.92307692308,4394.8717948718,4313.84615384615,4395.38461538462,4652.30769230769,4122.05128205128,4356.92307692308,4238.97435897436,4060,4262.5641025641,1664,1694,32.624,32.5592308044434,0,0,0,0,2/8/2015 6:20:48 AM,
90,0,423,4586.15384615385,4135.89743589744,4015.38461538462,4389.74358974359,4558.97435897436,4396.92307692308,4313.84615384615,4389.23076923077,4648.20512820513,4117.4358974359,4353.84615384615,4217.94871794872,4062.05128205128,4274.35897435897,1664,1694,32.632,32.5592308044434,0,0,0,0,2/8/2015 6:20:48 AM,
91,0,455,4559.48717948718,4143.58974358974,4004.10256410256,4396.92307692308,4575.38461538462,4410.76923076923,4313.84615384615,4395.38461538462,4657.94871794872,4107.69230769231,4350.25641025641,4212.82051282051,4060,4268.71794871795,1665,1695,32.64,32.5592308044434,0,0,0,0,2/8/2015 6:20:48 AM,
92,0,408,4533.33333333333,4139.48717948718,4003.58974358974,4386.15384615385,4556.41025641026,4415.89743589744,4313.84615384615,4396.41025641026,4663.07692307692,4095.38461538462,4349.74358974359,4226.66666666667,4042.5641025641,4225.12820512821,1665,1694,32.648,32.6217842102051,0,0,0,0,2/8/2015 6:20:48 AM,
93,0,437,4535.38461538462,4133.33333333333,4008.71794871795,4376.41025641026,4536.92307692308,4411.28205128205,4313.84615384615,4388.20512820513,4660.51282051282,4098.46153846154,4345.64102564103,4237.94871794872,4031.79487179487,4188.71794871795,1664,1695,32.656,32.6217842102051,0,0,0,0,2/8/2015 6:20:48 AM,
94,0,423,4542.5641025641,4134.35897435897,4010.25641025641,4386.15384615385,4542.05128205128,4415.38461538462,4313.84615384615,4384.10256410256,4662.5641025641,4116.92307692308,4333.84615384615,4234.8717948718,4032.82051282051,4202.5641025641,1665,1693,32.663,32.6217842102051,0,0,0,0,2/8/2015 6:20:48 AM,
95,0,455,4534.8717948718,4136.41025641026,4000,4392.30769230769,4559.48717948718,4428.20512820513,4313.84615384615,4378.97435897436,4658.97435897436,4128.20512820513,4333.33333333333,4220.51282051282,4036.92307692308,4234.8717948718,1664,1694,32.671,32.6217842102051,0,0,0,0,2/8/2015 6:20:48 AM,
96,0,408,4511.79487179487,4137.94871794872,3991.79487179487,4383.07692307692,4564.61538461538,4429.23076923077,4313.84615384615,4372.30769230769,4658.46153846154,4120.51282051282,4345.12820512821,4212.82051282051,4037.4358974359,4200,1665,1693,32.679,32.6530609130859,0,0,0,0,2/8/2015 6:20:48 AM,
97,0,437,4505.64102564103,4130.25641025641,4000,4373.33333333333,4545.64102564103,4414.35897435897,4313.33333333333,4373.33333333333,4664.10256410256,4111.79487179487,4340.51282051282,4219.48717948718,4023.07692307692,4148.71794871795,1664,1692,32.687,32.6530609130859,0,0,0,0,2/8/2015 6:20:48 AM,
98,0,423,4531.28205128205,4115.89743589744,4003.07692307692,4374.35897435897,4538.46153846154,4405.12820512821,4313.84615384615,4372.30769230769,4659.48717948718,4112.82051282051,4327.69230769231,4218.46153846154,4013.33333333333,4185.64102564103,1665,1694,32.696,32.6530609130859,0,0,0,0,2/8/2015 6:20:48 AM,
99,0,455,4533.84615384615,4121.53846153846,3992.30769230769,4382.05128205128,4561.53846153846,4412.82051282051,4314.35897435897,4371.28205128205,4652.82051282051,4113.84615384615,4337.94871794872,4200.51282051282,4028.71794871795,4240,1666,1694,32.704,32.6530609130859,0,0,0,0,2/8/2015 6:20:48 AM,
100,0,408,4503.07692307692,4136.92307692308,3993.84615384615,4383.07692307692,4578.97435897436,4423.58974358974,4312.30769230769,4377.94871794872,4657.4358974359,4113.33333333333,4348.20512820513,4193.33333333333,4037.94871794872,4209.23076923077,1665,1694,32.711,32.6530609130859,0,0,0,0,2/8/2015 6:20:48 AM,
101,0,437,4482.5641025641,4129.23076923077,4008.20512820513,4380,4558.46153846154,4420,4313.33333333333,4378.46153846154,4658.46153846154,4112.82051282051,4333.84615384615,4209.23076923077,4018.97435897436,4157.4358974359,1666,1695,32.719,32.6530609130859,0,0,0,0,2/8/2015 6:20:48 AM,
102,0,423,4497.94871794872,4116.92307692308,4006.15384615385,4380.51282051282,4532.82051282051,4415.89743589744,4316.41025641026,4367.69230769231,4649.74358974359,4112.30769230769,4325.12820512821,4221.02564102564,4009.74358974359,4148.71794871795,1667,1694,32.726,32.6530609130859,0,0,0,0,2/8/2015 6:20:48 AM,
103,0,455,4523.58974358974,4127.69230769231,3986.15384615385,4384.61538461538,4547.17948717949,4423.07692307692,4313.84615384615,4361.53846153846,4646.66666666667,4109.23076923077,4334.35897435897,4208.20512820513,4018.97435897436,4160.51282051282,1667,1694,32.734,32.6530609130859,0,0,0,0,2/8/2015 6:20:48 AM,
104,0,408,4511.79487179487,4136.41025641026,3981.02564102564,4381.53846153846,4570.25641025641,4429.74358974359,4312.82051282051,4367.69230769231,4648.20512820513,4109.74358974359,4337.4358974359,4194.8717948718,4021.02564102564,4171.28205128205,1666,1694,32.742,32.6530609130859,0,0,0,0,2/8/2015 6:20:48 AM,
105,0,437,4483.07692307692,4132.30769230769,3995.89743589744,4375.38461538462,4574.35897435897,4426.66666666667,4317.94871794872,4377.4358974359,4652.82051282051,4118.97435897436,4332.30769230769,4200,4015.89743589744,4188.71794871795,1667,1692,32.749,32.6530609130859,0,0,0,0,2/8/2015 6:20:48 AM,
106,0,423,4497.4358974359,4135.38461538462,3998.97435897436,4378.97435897436,4569.74358974359,4426.15384615385,4321.02564102564,4384.10256410256,4657.94871794872,4123.07692307692,4330.25641025641,4205.12820512821,4017.94871794872,4198.97435897436,1665,1693,32.757,32.6530609130859,0,0,0,0,2/8/2015 6:20:48 AM,
107,0,455,4523.07692307692,4132.30769230769,3982.05128205128,4382.05128205128,4561.53846153846,4428.20512820513,4318.46153846154,4382.5641025641,4652.82051282051,4118.97435897436,4332.82051282051,4199.48717948718,4023.07692307692,4174.8717948718,1666,1692,32.765,32.6530609130859,0,0,0,0,2/8/2015 6:20:48 AM,
108,0,408,4498.46153846154,4121.02564102564,3984.10256410256,4378.46153846154,4551.79487179487,4424.61538461538,4318.46153846154,4380,4646.66666666667,4119.48717948718,4336.41025641026,4200,4023.07692307692,4151.79487179487,1664,1690,32.773,32.6530609130859,0,0,0,0,2/8/2015 6:20:48 AM,
109,0,437,4477.4358974359,4124.61538461538,4005.12820512821,4381.02564102564,4557.4358974359,4428.20512820513,4318.97435897436,4390.25641025641,4656.41025641026,4126.15384615385,4344.61538461538,4205.64102564103,4025.12820512821,4171.28205128205,1664,1691,32.781,32.6530609130859,0,0,0,0,2/8/2015 6:20:48 AM,
110,0,423,4507.17948717949,4131.79487179487,4000.51282051282,4385.64102564103,4559.48717948718,4431.28205128205,4317.94871794872,4394.8717948718,4659.48717948718,4127.17948717949,4344.61538461538,4204.61538461538,4022.05128205128,4189.23076923077,1664,1691,32.789,32.6530609130859,0,0,0,0,2/8/2015 6:20:48 AM,
111,0,455,4531.79487179487,4122.05128205128,3984.61538461539,4375.38461538462,4546.15384615385,4422.05128205128,4317.94871794872,4384.61538461538,4645.12820512821,4122.05128205128,4327.69230769231,4200,4006.15384615385,4180.51282051282,1663,1693,32.796,32.6530609130859,0,0,0,0,2/8/2015 6:20:48 AM,
112,0,408,4514.8717948718,4116.92307692308,3989.23076923077,4371.79487179487,4558.97435897436,4420,4317.94871794872,4377.4358974359,4644.10256410256,4124.61538461538,4321.53846153846,4200,4004.10256410256,4181.53846153846,1664,1693,32.804,32.7781677246094,0,0,0,0,2/8/2015 6:20:48 AM,
113,0,437,4497.4358974359,4126.15384615385,3994.8717948718,4386.66666666667,4583.58974358974,4426.66666666667,4317.94871794872,4380,4657.94871794872,4133.84615384615,4340,4197.94871794872,4019.48717948718,4176.92307692308,1663,1694,32.812,32.7781677246094,0,0,0,0,2/8/2015 6:20:48 AM,
114,0,423,4506.66666666667,4126.15384615385,3988.71794871795,4388.20512820513,4575.38461538462,4423.07692307692,4317.94871794872,4381.02564102564,4660,4135.38461538462,4344.61538461538,4188.71794871795,4024.10256410256,4162.5641025641,1664,1694,32.82,32.7781677246094,0,0,0,0,2/8/2015 6:20:48 AM,
115,0,455,4506.66666666667,4126.15384615385,3986.66666666667,4375.89743589744,4560.51282051282,4418.97435897436,4317.94871794872,4380,4651.28205128205,4126.15384615385,4334.35897435897,4180,4017.94871794872,4172.30769230769,1663,1695,32.828,32.7781677246094,0,0,0,0,2/8/2015 6:20:48 AM,
116,0,408,4490.76923076923,4136.41025641026,3995.89743589744,4384.10256410256,4556.41025641026,4426.66666666667,4317.94871794872,4381.02564102564,4647.17948717949,4116.92307692308,4333.33333333333,4183.58974358974,4018.46153846154,4174.8717948718,1664,1695,32.835,32.7781677246094,0,0,0,0,2/8/2015 6:20:49 AM,
117,0,437,4486.66666666667,4133.84615384615,4007.17948717949,4393.84615384615,4546.66666666667,4430.25641025641,4317.94871794872,4386.15384615385,4652.30769230769,4121.53846153846,4327.69230769231,4193.84615384615,4017.94871794872,4152.82051282051,1663,1695,32.843,32.7781677246094,0,0,0,0,2/8/2015 6:20:49 AM,
118,0,423,4492.30769230769,4116.41025641026,4007.17948717949,4384.61538461538,4550.76923076923,4432.82051282051,4317.94871794872,4396.41025641026,4662.05128205128,4136.92307692308,4323.07692307692,4197.94871794872,4010.25641025641,4150.25641025641,1664,1694,32.851,32.7781677246094,0,0,0,0,2/8/2015 6:20:49 AM,
119,0,455,4494.35897435897,4117.4358974359,3992.82051282051,4387.69230769231,4578.97435897436,4437.94871794872,4317.94871794872,4402.05128205128,4666.15384615385,4141.53846153846,4334.8717948718,4197.94871794872,4014.35897435898,4175.38461538462,1662,1691,32.859,32.7781677246094,0,0,0,0,2/8/2015 6:20:49 AM,
120,0,408,4484.61538461538,4130.25641025641,3987.69230769231,4398.46153846154,4588.20512820513,4434.35897435897,4317.94871794872,4398.46153846154,4663.07692307692,4132.30769230769,4344.10256410256,4198.46153846154,4023.07692307692,4178.97435897436,1663,1691,32.867,32.7781677246094,0,0,0,0,2/8/2015 6:20:49 AM,
121,0,437,4474.8717948718,4124.61538461538,3994.35897435898,4386.66666666667,4578.46153846154,4428.71794871795,4317.94871794872,4392.30769230769,4658.97435897436,4134.35897435897,4344.10256410256,4191.79487179487,4022.5641025641,4165.64102564103,1664,1690,32.875,32.7781677246094,0,0,0,0,2/8/2015 6:20:49 AM,
122,0,423,4482.05128205128,4109.23076923077,3986.66666666667,4369.23076923077,4568.71794871795,4420.51282051282,4317.94871794872,4383.58974358974,4655.38461538462,4138.97435897436,4341.02564102564,4180.51282051282,4019.48717948718,4169.74358974359,1662,1692,32.882,32.7781677246094,0,0,0,0,2/8/2015 6:20:49 AM,
123,0,455,4489.74358974359,4101.53846153846,3982.5641025641,4364.10256410256,4553.84615384615,4411.28205128205,4317.94871794872,4379.48717948718,4655.38461538462,4125.64102564103,4323.07692307692,4189.74358974359,4017.94871794872,4158.46153846154,1664,1691,32.89,32.7781677246094,0,0,0,0,2/8/2015 6:20:49 AM,
124,0,408,4487.69230769231,4106.15384615385,3995.89743589744,4370.25641025641,4554.35897435897,4417.4358974359,4317.94871794872,4389.23076923077,4658.46153846154,4124.61538461538,4317.4358974359,4208.20512820513,4018.46153846154,4152.30769230769,1663,1692,32.898,32.7781677246094,0,0,0,0,2/8/2015 6:20:49 AM,
125,0,437,4493.33333333333,4125.64102564103,3994.35897435898,4388.20512820513,4568.71794871795,4432.82051282051,4317.94871794872,4402.5641025641,4665.12820512821,4142.05128205128,4343.07692307692,4201.02564102564,4024.61538461539,4180.51282051282,1664,1692,32.906,32.7781677246094,0,0,0,0,2/8/2015 6:20:49 AM,
126,0,423,4492.82051282051,4130.25641025641,3984.61538461539,4391.79487179487,4562.05128205128,4434.8717948718,4317.94871794872,4404.10256410256,4667.17948717949,4141.53846153846,4351.28205128205,4189.23076923077,4024.61538461539,4180.51282051282,1663,1693,32.914,32.7781677246094,0,0,0,0,2/8/2015 6:20:49 AM,
127,0,455,4486.15384615385,4110.76923076923,3990.76923076923,4375.89743589744,4547.17948717949,4430.76923076923,4317.94871794872,4399.48717948718,4662.05128205128,4125.12820512821,4338.46153846154,4198.46153846154,4020.51282051282,4156.41025641026,1663,1694,32.921,32.7781677246094,0,0,0,0,2/8/2015 6:20:49 AM,
128,0,408,4495.89743589744,4107.69230769231,3994.35897435898,4375.38461538462,4552.82051282051,4430.76923076923,4317.94871794872,4399.48717948718,4665.64102564103,4122.5641025641,4342.05128205128,4205.64102564103,4027.69230769231,4170.76923076923,1663,1695,32.929,32.9032745361328,0,0,0,0,2/8/2015 6:20:49 AM,
0,0,449,4495.38461538462,4122.05128205128,3989.74358974359,4383.58974358974,4562.05128205128,4428.20512820513,4317.94871794872,4401.53846153846,4672.30769230769,4121.02564102564,4341.53846153846,4202.5641025641,4029.23076923077,4180.51282051282,1664,1695,32.938,32.9032745361328,0,0,0,0,2/8/2015 6:20:49 AM,
1,0,441,4481.53846153846,4123.07692307692,4005.12820512821,4387.17948717949,4554.8717948718,4429.23076923077,4317.94871794872,4402.05128205128,4665.64102564103,4108.20512820513,4331.79487179487,4212.82051282051,4018.97435897436,4162.5641025641,1663,1696,32.946,32.9032745361328,0,0,0,0,2/8/2015 6:20:49 AM,
2,0,467,4493.84615384615,4119.48717948718,4021.02564102564,4391.28205128205,4550.25641025641,4433.84615384615,4317.94871794872,4401.53846153846,4664.61538461539,4114.35897435897,4338.46153846154,4219.48717948718,4022.5641025641,4173.33333333333,1664,1695,32.954,32.9032745361328,0,0,0,0,2/8/2015 6:20:49 AM,
3,0,491,4510.25641025641,4116.92307692308,4007.69230769231,4390.76923076923,4553.84615384615,4430.76923076923,4317.94871794872,4400.51282051282,4672.82051282051,4136.92307692308,4342.5641025641,4202.05128205128,4030.76923076923,4193.84615384615,1663,1695,32.962,32.9032745361328,0,0,0,0,2/8/2015 6:20:49 AM,
4,0,475,4489.74358974359,4103.58974358974,3989.74358974359,4381.02564102564,4570.25641025641,4426.66666666667,4317.94871794872,4395.38461538462,4668.20512820513,4141.53846153846,4326.66666666667,4196.92307692308,4020.51282051282,4175.89743589744,1664,1693,32.969,32.9032745361328,0,0,0,0,2/8/2015 6:20:49 AM,
5,0,463,4467.17948717949,4096.41025641026,3984.10256410256,4366.15384615385,4589.74358974359,4431.28205128205,4317.94871794872,4387.69230769231,4661.53846153846,4130.25641025641,4313.84615384615,4203.58974358974,4006.15384615385,4143.58974358974,1664,1693,32.977,32.9032745361328,0,0,0,0,2/8/2015 6:20:49 AM,
6,0,480,4478.97435897436,4099.48717948718,3982.5641025641,4357.94871794872,4572.30769230769,4424.61538461538,4317.94871794872,4386.66666666667,4673.84615384615,4126.66666666667,4318.97435897436,4190.76923076923,4007.69230769231,4152.82051282051,1665,1692,32.985,32.9032745361328,0,0,0,0,2/8/2015 6:20:49 AM,
7,0,0,4500.51282051282,4097.4358974359,3977.4358974359,4366.15384615385,4536.41025641026,4411.28205128205,4317.94871794872,4389.74358974359,4681.02564102564,4123.07692307692,4334.8717948718,4180.51282051282,4016.92307692308,4183.07692307692,1662,1692,32.993,32.9032745361328,0,0,0,0,2/8/2015 6:20:49 AM,
8,0,410,4510.76923076923,4099.48717948718,3974.8717948718,4380.51282051282,4544.61538461538,4421.02564102564,4317.94871794872,4386.66666666667,4676.92307692308,4111.79487179487,4349.74358974359,4198.46153846154,4019.48717948718,4166.15384615385,1663,1692,33.001,32.9032745361328,0,0,0,0,2/8/2015 6:20:49 AM,
9,0,426,4503.58974358974,4106.15384615385,3983.07692307692,4380.51282051282,4563.58974358974,4430.25641025641,4317.94871794872,4382.05128205128,4674.8717948718,4104.10256410256,4343.07692307692,4205.64102564103,4013.33333333333,4132.30769230769,1663,1691,33.009,32.9032745361328,0,0,0,0,2/8/2015 6:20:49 AM,
10,0,423,4488.71794871795,4108.20512820513,3990.76923076923,4374.35897435897,4540.51282051282,4414.35897435897,4318.46153846154,4381.53846153846,4668.20512820513,4105.64102564103,4320,4187.17948717949,4006.15384615385,4131.28205128205,1663,1692,33.016,32.9032745361328,0,0,0,0,2/8/2015 6:20:49 AM,
11,0,455,4490.25641025641,4106.15384615385,3991.28205128205,4368.20512820513,4532.30769230769,4401.02564102564,4318.97435897436,4382.05128205128,4663.58974358974,4110.76923076923,4317.4358974359,4188.71794871795,4003.58974358974,4136.41025641026,1663,1691,33.024,32.9032745361328,0,0,0,0,2/8/2015 6:20:49 AM,
12,0,408,4503.58974358974,4101.02564102564,3987.17948717949,4359.48717948718,4553.84615384615,4412.30769230769,4318.97435897436,4379.48717948718,4672.30769230769,4111.79487179487,4328.71794871795,4203.07692307692,4004.61538461539,4129.74358974359,1663,1694,33.032,32.9032745361328,0,0,0,0,2/8/2015 6:20:49 AM,
13,0,437,4512.82051282051,4103.07692307692,3977.94871794872,4369.23076923077,4548.71794871795,4428.71794871795,4318.97435897436,4381.02564102564,4680,4109.74358974359,4324.61538461538,4193.33333333333,4001.02564102564,4148.20512820513,1664,1693,33.04,32.9032745361328,0,0,0,0,2/8/2015 6:20:49 AM,
14,0,423,4509.23076923077,4112.82051282051,3977.4358974359,4381.53846153846,4530.76923076923,4432.82051282051,4318.97435897436,4388.20512820513,4675.38461538462,4106.66666666667,4321.53846153846,4179.48717948718,3993.33333333333,4161.53846153846,1664,1694,33.048,32.9032745361328,0,0,0,0,2/8/2015 6:20:49 AM,
15,0,455,4495.38461538462,4108.20512820513,3986.66666666667,4369.23076923077,4543.58974358974,4428.20512820513,4318.97435897436,4391.28205128205,4668.20512820513,4107.69230769231,4334.35897435897,4185.64102564103,4003.58974358974,4118.46153846154,1664,1694,33.055,33.0283851623535,0,0,0,0,2/8/2015 6:20:49 AM,
16,0,0,4487.69230769231,4092.82051282051,3983.58974358974,4355.89743589744,4559.48717948718,4422.5641025641,4318.97435897436,4384.61538461538,4663.58974358974,4112.82051282051,4334.35897435897,4190.25641025641,4015.38461538462,4092.82051282051,1664,1694,33.063,33.0283851623535,0,0,0,0,2/8/2015 6:20:49 AM,
17,0,0,4492.30769230769,4085.64102564103,3968.71794871795,4356.41025641026,4545.12820512821,4413.84615384615,4318.97435897436,4375.89743589744,4657.94871794872,4110.25641025641,4321.02564102564,4183.07692307692,4008.20512820513,4140.51282051282,1664,1693,33.071,33.0283851623535,0,0,0,0,2/8/2015 6:20:49 AM,
18,0,0,4492.30769230769,4084.61538461539,3967.69230769231,4351.28205128205,4533.84615384615,4409.23076923077,4318.97435897436,4373.33333333333,4657.4358974359,4106.66666666667,4323.07692307692,4180.51282051282,4007.69230769231,4186.15384615385,1664,1693,33.078,33.0283851623535,0,0,0,0,2/8/2015 6:20:49 AM,
19,0,0,4486.66666666667,4085.12820512821,3975.89743589744,4347.17948717949,4537.94871794872,4421.02564102564,4318.97435897436,4376.92307692308,4663.07692307692,4119.48717948718,4332.82051282051,4189.74358974359,4013.33333333333,4168.71794871795,1665,1694,33.086,33.0596618652344,0,0,0,0,2/8/2015 6:20:49 AM,
20,0,0,4488.20512820513,4093.33333333333,3987.17948717949,4358.97435897436,4527.17948717949,4423.07692307692,4318.97435897436,4381.02564102564,4666.15384615385,4131.79487179487,4335.38461538462,4204.10256410256,4007.17948717949,4142.5641025641,1664,1693,33.094,33.0596618652344,0,0,0,0,2/8/2015 6:20:49 AM,
21,0,0,4490.76923076923,4104.61538461538,3989.74358974359,4371.79487179487,4522.5641025641,4414.35897435897,4318.97435897436,4382.05128205128,4666.15384615385,4127.17948717949,4336.41025641026,4201.02564102564,4011.28205128205,4152.82051282051,1663,1695,33.101,33.0596618652344,0,0,0,0,2/8/2015 6:20:49 AM,
22,0,0,4503.58974358974,4110.76923076923,3977.4358974359,4380,4555.38461538462,4420,4318.97435897436,4380.51282051282,4666.66666666667,4118.97435897436,4333.84615384615,4185.12820512821,4018.97435897436,4160,1665,1693,33.109,33.0596618652344,0,0,0,0,2/8/2015 6:20:49 AM,
23,0,0,4513.84615384615,4107.17948717949,3984.61538461539,4382.5641025641,4564.61538461538,4420.51282051282,4318.97435897436,4381.53846153846,4660,4112.82051282051,4326.15384615385,4182.5641025641,4005.12820512821,4146.66666666667,1664,1694,33.117,33.0596618652344,0,0,0,0,2/8/2015 6:20:49 AM,
24,0,0,4493.84615384615,4101.53846153846,4003.58974358974,4365.64102564103,4536.41025641026,4408.71794871795,4318.97435897436,4382.5641025641,4654.8717948718,4104.10256410256,4321.02564102564,4188.71794871795,4000.51282051282,4140.51282051282,1665,1693,33.125,33.0596618652344,0,0,0,0,2/8/2015 6:20:49 AM,
25,0,0,4480.51282051282,4104.61538461538,3991.79487179487,4354.8717948718,4541.53846153846,4414.8717948718,4318.97435897436,4381.53846153846,4661.53846153846,4101.02564102564,4318.46153846154,4188.20512820513,4005.12820512821,4150.25641025641,1664,1694,33.133,33.0596618652344,0,0,0,0,2/8/2015 6:20:49 AM,
26,0,0,4500,4108.20512820513,3971.28205128205,4370.25641025641,4560.51282051282,4433.33333333333,4318.97435897436,4384.61538461538,4666.66666666667,4111.79487179487,4311.28205128205,4188.20512820513,3992.82051282051,4156.92307692308,1664,1694,33.14,33.0596618652344,0,0,0,0,2/8/2015 6:20:49 AM,
27,0,0,4507.69230769231,4105.64102564103,3972.82051282051,4377.94871794872,4557.94871794872,4429.23076923077,4318.97435897436,4390.25641025641,4662.5641025641,4121.02564102564,4311.79487179487,4186.15384615385,3997.4358974359,4163.58974358974,1664,1693,33.148,33.0596618652344,0,0,0,0,2/8/2015 6:20:49 AM,
28,0,0,4488.20512820513,4098.97435897436,3972.30769230769,4364.61538461538,4554.8717948718,4418.97435897436,4318.97435897436,4389.23076923077,4661.02564102564,4113.84615384615,4331.79487179487,4180,4022.05128205128,4175.89743589744,1665,1694,33.156,33.0596618652344,0,0,0,0,2/8/2015 6:20:49 AM,
29,0,0,4473.84615384615,4092.82051282051,3969.23076923077,4356.92307692308,4543.58974358974,4414.8717948718,4318.97435897436,4384.61538461538,4658.97435897436,4103.07692307692,4341.53846153846,4188.20512820513,4017.4358974359,4150.76923076923,1665,1693,33.164,33.0596618652344,0,0,0,0,2/8/2015 6:20:49 AM,
30,0,0,4467.17948717949,4090.76923076923,3982.5641025641,4355.89743589744,4517.4358974359,4404.10256410256,4318.97435897436,4378.97435897436,4650.76923076923,4102.5641025641,4331.28205128205,4205.12820512821,3998.97435897436,4107.17948717949,1665,1693,33.172,33.0596618652344,0,0,0,0,2/8/2015 6:20:49 AM,
31,0,0,4458.46153846154,4093.84615384615,3988.20512820513,4352.82051282051,4517.4358974359,4401.53846153846,4318.97435897436,4375.89743589744,4646.15384615385,4101.53846153846,4325.12820512821,4199.48717948718,4002.5641025641,4129.74358974359,1665,1692,33.18,33.153491973877,0,0,0,0,2/8/2015 6:20:49 AM,
32,0,0,4471.79487179487,4103.07692307692,3981.02564102564,4359.48717948718,4545.12820512821,4418.97435897436,4318.97435897436,4381.53846153846,4649.74358974359,4103.07692307692,4331.28205128205,4190.76923076923,4013.84615384615,4187.69230769231,1664,1693,33.187,33.153491973877,0,0,0,0,2/8/2015 6:20:49 AM,
33,0,0,4508.71794871795,4116.41025641026,3981.53846153846,4371.79487179487,4558.97435897436,4429.74358974359,4318.97435897436,4390.25641025641,4655.38461538462,4117.94871794872,4342.5641025641,4200,4024.61538461539,4186.66666666667,1665,1692,33.195,33.153491973877,0,0,0,0,2/8/2015 6:20:49 AM,
34,0,0,4514.8717948718,4126.15384615385,3988.71794871795,4371.28205128205,4560.51282051282,4426.66666666667,4318.97435897436,4391.28205128205,4658.46153846154,4126.15384615385,4344.10256410256,4194.8717948718,4027.69230769231,4159.48717948718,1663,1693,33.203,33.153491973877,0,0,0,0,2/8/2015 6:20:49 AM,
35,0,0,4487.17948717949,4120.51282051282,3992.30769230769,4372.82051282051,4555.89743589744,4436.41025641026,4318.97435897436,4395.89743589744,4661.53846153846,4122.5641025641,4322.5641025641,4184.61538461538,4008.71794871795,4139.48717948718,1664,1692,33.211,33.153491973877,0,0,0,0,2/8/2015 6:20:49 AM,
36,0,0,4473.84615384615,4104.61538461538,3990.25641025641,4378.46153846154,4545.12820512821,4444.61538461538,4318.97435897436,4403.58974358974,4662.05128205128,4122.5641025641,4311.28205128205,4201.02564102564,3996.41025641026,4110.76923076923,1663,1692,33.219,33.153491973877,0,0,0,0,2/8/2015 6:20:49 AM,
37,0,0,4475.89743589744,4099.48717948718,3981.53846153846,4372.82051282051,4540.51282051282,4430.76923076923,4318.97435897436,4402.05128205128,4656.92307692308,4117.94871794872,4331.28205128205,4204.61538461538,4005.64102564103,4137.4358974359,1664,1693,33.226,33.153491973877,0,0,0,0,2/8/2015 6:20:49 AM,
38,0,0,4477.4358974359,4109.74358974359,3973.84615384615,4365.12820512821,4553.84615384615,4421.53846153846,4318.97435897436,4398.46153846154,4654.8717948718,4111.28205128205,4342.05128205128,4183.58974358974,4010.25641025641,4199.48717948718,1663,1693,33.234,33.153491973877,0,0,0,0,2/8/2015 6:20:49 AM,
39,0,0,4477.4358974359,4111.28205128205,3974.8717948718,4366.15384615385,4563.07692307692,4427.69230769231,4318.97435897436,4398.46153846154,4659.48717948718,4118.97435897436,4322.05128205128,4182.5641025641,4004.61538461539,4179.48717948718,1664,1694,33.242,33.153491973877,0,0,0,0,2/8/2015 6:20:49 AM,
40,0,0,4475.89743589744,4103.58974358974,3975.38461538462,4362.5641025641,4544.61538461538,4428.71794871795,4318.97435897436,4397.94871794872,4658.46153846154,4120.51282051282,4313.33333333333,4192.82051282051,4001.53846153846,4122.5641025641,1663,1693,33.25,33.153491973877,0,0,0,0,2/8/2015 6:20:49 AM,
41,0,0,4473.33333333333,4103.07692307692,3973.33333333333,4362.5641025641,4537.94871794872,4423.07692307692,4318.97435897436,4395.89743589744,4651.28205128205,4110.76923076923,4333.84615384615,4189.23076923077,4005.12820512821,4129.74358974359,1663,1694,33.258,33.153491973877,0,0,0,0,2/8/2015 6:20:49 AM,
42,0,0,4469.23076923077,4104.10256410256,3973.33333333333,4365.12820512821,4556.41025641026,4421.53846153846,4318.97435897436,4391.28205128205,4648.71794871795,4115.38461538462,4343.58974358974,4183.58974358974,4016.41025641026,4156.41025641026,1664,1692,33.266,33.153491973877,0,0,0,0,2/8/2015 6:20:49 AM,
43,0,0,4460.51282051282,4097.94871794872,3967.17948717949,4356.92307692308,4542.5641025641,4415.89743589744,4318.97435897436,4386.66666666667,4649.74358974359,4114.8717948718,4331.79487179487,4178.97435897436,4017.4358974359,4161.53846153846,1664,1692,33.273,33.153491973877,0,0,0,0,2/8/2015 6:20:49 AM,
44,0,0,4448.20512820513,4090.76923076923,3966.15384615385,4356.41025641026,4505.64102564103,4404.61538461538,4318.97435897436,4387.17948717949,4646.66666666667,4095.89743589744,4323.07692307692,4183.58974358974,4004.61538461539,4150.76923076923,1664,1692,33.281,33.153491973877,0,0,0,0,2/8/2015 6:20:49 AM,
45,0,0,4444.61538461538,4087.17948717949,3974.8717948718,4368.71794871795,4508.20512820513,4404.10256410256,4318.97435897436,4390.25641025641,4644.10256410256,4097.94871794872,4325.12820512821,4196.92307692308,3998.46153846154,4132.82051282051,1663,1693,33.289,33.153491973877,0,0,0,0,2/8/2015 6:20:49 AM,
46,0,0,4459.48717948718,4093.33333333333,3975.89743589744,4369.23076923077,4526.66666666667,4420,4318.97435897436,4388.71794871795,4651.28205128205,4121.53846153846,4330.76923076923,4192.30769230769,4006.15384615385,4164.10256410256,1665,1692,33.297,33.153491973877,0,0,0,0,2/8/2015 6:20:49 AM,
47,0,0,4478.46153846154,4104.61538461538,3973.84615384615,4363.58974358974,4523.58974358974,4428.71794871795,4318.97435897436,4387.69230769231,4657.94871794872,4126.66666666667,4332.82051282051,4180.51282051282,4015.89743589744,4193.84615384615,1663,1692,33.305,33.2785987854004,0,0,0,0,2/8/2015 6:20:49 AM,
48,0,0,4482.5641025641,4105.64102564103,3974.35897435898,4368.71794871795,4535.38461538462,4423.58974358974,4318.97435897436,4384.61538461538,4650.76923076923,4116.41025641026,4329.74358974359,4187.17948717949,4016.92307692308,4164.61538461538,1663,1694,33.312,33.2785987854004,0,0,0,0,2/8/2015 6:20:49 AM,
49,0,0,4473.33333333333,4101.53846153846,3967.17948717949,4368.20512820513,4549.23076923077,4412.82051282051,4318.97435897436,4373.84615384615,4640,4109.74358974359,4328.71794871795,4191.79487179487,4013.33333333333,4154.8717948718,1664,1693,33.32,33.2785987854004,0,0,0,0,2/8/2015 6:20:49 AM,
50,0,0,4464.10256410256,4112.30769230769,3958.97435897436,4358.97435897436,4529.74358974359,4403.58974358974,4318.97435897436,4367.17948717949,4643.58974358974,4108.71794871795,4333.84615384615,4182.05128205128,4016.41025641026,4178.97435897436,1663,1694,33.328,33.2785987854004,0,0,0,0,2/8/2015 6:20:49 AM,
51,0,0,4458.46153846154,4125.64102564103,3972.82051282051,4365.12820512821,4519.48717948718,4411.28205128205,4318.97435897436,4373.84615384615,4654.8717948718,4112.30769230769,4336.92307692308,4186.66666666667,4023.58974358974,4167.17948717949,1664,1693,33.336,33.2785987854004,0,0,0,0,2/8/2015 6:20:49 AM,
52,0,0,4455.38461538462,4121.53846153846,3997.4358974359,4382.5641025641,4537.4358974359,4428.20512820513,4318.97435897436,4382.05128205128,4659.48717948718,4110.25641025641,4337.4358974359,4207.69230769231,4013.33333333333,4143.58974358974,1664,1693,33.344,33.2785987854004,0,0,0,0,2/8/2015 6:20:49 AM,
53,0,0,4464.10256410256,4112.30769230769,4001.53846153846,4385.64102564103,4543.58974358974,4432.30769230769,4318.97435897436,4384.10256410256,4663.07692307692,4103.58974358974,4330.76923076923,4208.20512820513,4002.5641025641,4165.12820512821,1664,1693,33.352,33.2785987854004,0,0,0,0,2/8/2015 6:20:49 AM,
54,0,0,4475.38461538462,4109.23076923077,3975.89743589744,4372.30769230769,4536.41025641026,4426.66666666667,4318.97435897436,4386.15384615385,4672.82051282051,4106.15384615385,4323.07692307692,4188.20512820513,4011.28205128205,4180,1663,1695,33.359,33.2785987854004,0,0,0,0,2/8/2015 6:20:49 AM,
55,0,0,4466.15384615385,4107.17948717949,3952.82051282051,4365.64102564103,4536.41025641026,4418.97435897436,4319.48717948718,4387.69230769231,4675.89743589744,4109.23076923077,4331.28205128205,4182.5641025641,4018.46153846154,4157.94871794872,1664,1695,33.367,33.2785987854004,0,0,0,0,2/8/2015 6:20:49 AM,
56,0,0,4453.84615384615,4104.61538461538,3960.51282051282,4361.02564102564,4537.94871794872,4414.8717948718,4318.97435897436,4383.58974358974,4665.12820512821,4104.61538461538,4334.8717948718,4200,4013.84615384615,4151.79487179487,1664,1696,33.375,33.2785987854004,0,0,0,0,2/8/2015 6:20:49 AM,
57,0,0,4453.84615384615,4100.51282051282,3985.64102564103,4357.4358974359,4537.4358974359,4424.61538461538,4318.97435897436,4386.15384615385,4660.51282051282,4109.23076923077,4323.07692307692,4205.12820512821,4008.20512820513,4177.94871794872,1664,1695,33.383,33.2785987854004,0,0,0,0,2/8/2015 6:20:49 AM,
58,0,0,4453.33333333333,4105.64102564103,3997.4358974359,4369.23076923077,4535.89743589744,4430.76923076923,4320,4395.89743589744,4664.10256410256,4117.4358974359,4329.23076923077,4189.23076923077,4014.35897435898,4187.69230769231,1663,1695,33.391,33.2785987854004,0,0,0,0,2/8/2015 6:20:49 AM,
59,0,0,4471.28205128205,4116.92307692308,3993.33333333333,4383.07692307692,4532.82051282051,4422.05128205128,4317.94871794872,4397.94871794872,4667.17948717949,4114.8717948718,4348.71794871795,4187.69230769231,4022.5641025641,4171.79487179487,1663,1695,33.399,33.2785987854004,0,0,0,0,2/8/2015 6:20:49 AM,
60,0,0,4498.97435897436,4121.53846153846,3987.17948717949,4385.64102564103,4545.12820512821,4423.07692307692,4313.33333333333,4391.79487179487,4668.20512820513,4116.41025641026,4342.5641025641,4198.97435897436,4020.51282051282,4182.05128205128,1663,1694,33.406,33.2785987854004,0,0,0,0,2/8/2015 6:20:49 AM,
61,0,0,4478.46153846154,4114.8717948718,3989.74358974359,4380.51282051282,4553.33333333333,4424.10256410256,4311.79487179487,4384.61538461538,4656.41025641026,4121.53846153846,4328.71794871795,4202.05128205128,4017.94871794872,4195.38461538462,1664,1692,33.414,33.2785987854004,0,0,0,0,2/8/2015 6:20:49 AM,
62,0,0,4450.76923076923,4112.30769230769,3997.4358974359,4374.8717948718,4542.5641025641,4410.76923076923,4312.82051282051,4383.07692307692,4648.20512820513,4117.94871794872,4333.84615384615,4206.15384615385,4025.64102564103,4185.12820512821,1663,1692,33.422,33.2785987854004,0,0,0,0,2/8/2015 6:20:49 AM,
63,0,0,4479.48717948718,4120.51282051282,3999.48717948718,4378.46153846154,4543.07692307692,4415.38461538462,4313.33333333333,4390.25641025641,4659.48717948718,4117.4358974359,4339.48717948718,4210.25641025641,4033.33333333333,4193.84615384615,1664,1690,33.43,33.4037055969238,0,0,0,0,2/8/2015 6:20:49 AM,
64,0,449,4497.4358974359,4118.97435897436,3994.35897435898,4388.20512820513,4549.23076923077,4429.23076923077,4313.33333333333,4397.4358974359,4669.23076923077,4123.58974358974,4341.02564102564,4203.07692307692,4027.17948717949,4205.12820512821,1663,1691,33.438,33.4037055969238,0,0,0,0,2/8/2015 6:20:49 AM,
65,0,441,4471.79487179487,4106.15384615385,3991.79487179487,4379.48717948718,4538.97435897436,4427.69230769231,4313.33333333333,4398.46153846154,4661.53846153846,4124.10256410256,4339.48717948718,4201.53846153846,4016.92307692308,4173.33333333333,1665,1691,33.445,33.4037055969238,0,0,0,0,2/8/2015 6:20:49 AM,
66,0,468,4469.23076923077,4104.10256410256,3991.79487179487,4367.69230769231,4536.92307692308,4422.05128205128,4312.82051282051,4399.48717948718,4659.48717948718,4124.10256410256,4336.92307692308,4216.41025641026,4012.82051282051,4148.20512820513,1664,1692,33.453,33.4037055969238,0,0,0,0,2/8/2015 6:20:49 AM,
67,0,491,4480.51282051282,4110.25641025641,3987.69230769231,4381.02564102564,4545.12820512821,4418.46153846154,4312.82051282051,4400.51282051282,4661.53846153846,4123.58974358974,4340.51282051282,4215.89743589744,4018.46153846154,4170.76923076923,1664,1692,33.461,33.4037055969238,0,0,0,0,2/8/2015 6:20:49 AM,
68,0,475,4465.12820512821,4109.23076923077,3991.28205128205,4387.17948717949,4544.61538461538,4411.28205128205,4312.82051282051,4397.4358974359,4652.30769230769,4120.51282051282,4343.58974358974,4202.5641025641,4023.07692307692,4190.76923076923,1664,1692,33.469,33.4037055969238,0,0,0,0,2/8/2015 6:20:49 AM,
69,0,463,4460.51282051282,4106.66666666667,3998.97435897436,4367.69230769231,4546.66666666667,4407.69230769231,4312.82051282051,4395.38461538462,4645.64102564103,4119.48717948718,4334.35897435897,4202.05128205128,4020.51282051282,4188.71794871795,1664,1693,33.477,33.4037055969238,0,0,0,0,2/8/2015 6:20:49 AM,
70,0,480,4477.4358974359,4107.17948717949,3991.28205128205,4365.64102564103,4549.23076923077,4415.89743589744,4312.82051282051,4394.8717948718,4648.20512820513,4112.30769230769,4332.82051282051,4209.74358974359,4018.97435897436,4183.07692307692,1665,1693,33.485,33.4037055969238,0,0,0,0,2/8/2015 6:20:49 AM,
71,0,0,4474.35897435897,4106.66666666667,3988.20512820513,4382.5641025641,4531.79487179487,4424.10256410256,4312.82051282051,4397.4358974359,4654.8717948718,4109.74358974359,4333.33333333333,4216.41025641026,4012.82051282051,4169.74358974359,1665,1694,33.492,33.4037055969238,0,0,0,0,2/8/2015 6:20:49 AM,
72,0,410,4460,4107.69230769231,4004.61538461539,4383.07692307692,4523.07692307692,4420.51282051282,4312.82051282051,4397.4358974359,4653.33333333333,4121.02564102564,4323.07692307692,4221.02564102564,4006.15384615385,4162.5641025641,1664,1693,33.5,33.4037055969238,0,0,0,0,2/8/2015 6:20:49 AM,
73,0,426,4475.38461538462,4106.15384615385,4011.79487179487,4378.46153846154,4551.79487179487,4417.4358974359,4312.82051282051,4393.84615384615,4646.15384615385,4126.66666666667,4333.33333333333,4216.92307692308,4017.94871794872,4191.28205128205,1664,1695,33.509,33.4037055969238,0,0,0,0,2/8/2015 6:20:49 AM,
74,0,423,4497.94871794872,4104.10256410256,4001.02564102564,4384.10256410256,4577.94871794872,4427.69230769231,4312.82051282051,4400.51282051282,4646.66666666667,4120.51282051282,4345.12820512821,4203.07692307692,4033.84615384615,4227.17948717949,1665,1694,33.517,33.4037055969238,0,0,0,0,2/8/2015 6:20:49 AM,
75,0,455,4480,4104.61538461538,3993.33333333333,4381.53846153846,4566.66666666667,4431.79487179487,4312.82051282051,4405.64102564103,4650.25641025641,4119.48717948718,4330.76923076923,4195.38461538462,4022.05128205128,4223.07692307692,1664,1695,33.525,33.4037055969238,0,0,0,0,2/8/2015 6:20:49 AM,
76,0,408,4453.84615384615,4104.10256410256,3988.71794871795,4370.25641025641,4547.69230769231,4417.94871794872,4312.82051282051,4399.48717948718,4647.69230769231,4120.51282051282,4327.17948717949,4201.53846153846,4004.10256410256,4182.05128205128,1664,1694,33.532,33.4037055969238,0,0,0,0,2/8/2015 6:20:49 AM,
77,0,437,4467.17948717949,4106.15384615385,3988.71794871795,4372.30769230769,4543.07692307692,4417.4358974359,4312.82051282051,4403.07692307692,4645.64102564103,4117.4358974359,4337.4358974359,4216.92307692308,4009.74358974359,4149.74358974359,1663,1693,33.54,33.4037055969238,0,0,0,0,2/8/2015 6:20:49 AM,
78,0,423,4487.69230769231,4106.66666666667,4000.51282051282,4382.5641025641,4528.71794871795,4428.71794871795,4312.82051282051,4415.89743589744,4650.76923076923,4121.02564102564,4330.76923076923,4219.48717948718,4014.8717948718,4173.33333333333,1664,1692,33.548,33.4037055969238,0,0,0,0,2/8/2015 6:20:49 AM,
79,0,455,4471.79487179487,4098.46153846154,4001.02564102564,4380.51282051282,4515.89743589744,4428.71794871795,4312.82051282051,4415.38461538462,4651.28205128205,4118.97435897436,4322.05128205128,4205.64102564103,4004.61538461539,4212.82051282051,1664,1690,33.557,33.5288124084473,0,0,0,0,2/8/2015 6:20:49 AM,
80,0,408,4459.48717948718,4096.41025641026,3989.23076923077,4370.76923076923,4530.25641025641,4425.12820512821,4312.82051282051,4407.17948717949,4648.20512820513,4110.76923076923,4327.17948717949,4195.89743589744,4002.05128205128,4207.17948717949,1663,1691,33.564,33.5288124084473,0,0,0,0,2/8/2015 6:20:49 AM,
81,0,437,4464.61538461538,4102.5641025641,3988.20512820513,4372.30769230769,4542.5641025641,4421.02564102564,4312.82051282051,4405.64102564103,4648.71794871795,4115.89743589744,4329.74358974359,4200.51282051282,4012.82051282051,4184.10256410256,1665,1689,33.571,33.5288124084473,0,0,0,0,2/8/2015 6:20:49 AM,
82,0,423,4466.66666666667,4096.41025641026,3991.79487179487,4372.82051282051,4541.02564102564,4416.41025641026,4312.82051282051,4406.15384615385,4650.25641025641,4121.02564102564,4324.61538461538,4211.79487179487,4015.89743589744,4179.48717948718,1664,1692,33.578,33.5288124084473,0,0,0,0,2/8/2015 6:20:49 AM,
83,0,455,4468.71794871795,4085.64102564103,3982.05128205128,4367.17948717949,4534.35897435897,4410.25641025641,4312.82051282051,4400,4642.5641025641,4109.74358974359,4322.5641025641,4215.89743589744,4004.10256410256,4179.48717948718,1664,1691,33.586,33.5600891113281,0,0,0,0,2/8/2015 6:20:49 AM,
84,0,408,4463.07692307692,4091.28205128205,3980.51282051282,4372.30769230769,4526.66666666667,4401.53846153846,4312.82051282051,4390.25641025641,4632.82051282051,4108.71794871795,4332.30769230769,4209.23076923077,3998.97435897436,4177.4358974359,1665,1693,33.594,33.5600891113281,0,0,0,0,2/8/2015 6:20:49 AM,
85,0,437,4455.38461538462,4097.4358974359,3993.33333333333,4376.92307692308,4527.17948717949,4401.02564102564,4312.82051282051,4392.82051282051,4634.8717948718,4120.51282051282,4347.17948717949,4201.53846153846,4012.82051282051,4189.23076923077,1666,1694,33.602,33.5600891113281,0,0,0,0,2/8/2015 6:20:49 AM,
86,0,423,4464.61538461538,4093.33333333333,3992.30769230769,4373.84615384615,4521.02564102564,4414.8717948718,4312.82051282051,4406.15384615385,4640,4123.07692307692,4343.07692307692,4201.53846153846,4024.10256410256,4189.23076923077,1664,1694,33.61,33.5600891113281,0,0,0,0,2/8/2015 6:20:49 AM,
87,0,455,4465.12820512821,4099.48717948718,3991.79487179487,4377.94871794872,4505.12820512821,4427.17948717949,4312.82051282051,4413.33333333333,4640,4126.15384615385,4324.61538461538,4210.76923076923,4017.4358974359,4170.25641025641,1664,1694,33.617,33.5600891113281,0,0,0,0,2/8/2015 6:20:49 AM,
88,0,408,4454.35897435897,4113.33333333333,4002.05128205128,4382.05128205128,4514.8717948718,4429.23076923077,4312.82051282051,4413.84615384615,4647.17948717949,4132.30769230769,4322.05128205128,4215.89743589744,4016.41025641026,4185.12820512821,1664,1693,33.625,33.5600891113281,0,0,0,0,2/8/2015 6:20:49 AM,
89,0,437,4466.66666666667,4115.38461538462,3996.41025641026,4380.51282051282,4540.51282051282,4424.61538461538,4312.82051282051,4416.41025641026,4656.92307692308,4125.64102564103,4340,4204.10256410256,4027.17948717949,4214.35897435897,1664,1694,33.633,33.5600891113281,0,0,0,0,2/8/2015 6:20:49 AM,
90,0,423,4474.8717948718,4102.05128205128,3992.30769230769,4381.02564102564,4544.10256410256,4417.94871794872,4312.82051282051,4415.89743589744,4655.89743589744,4120.51282051282,4342.5641025641,4197.94871794872,4021.53846153846,4186.15384615385,1663,1693,33.641,33.5600891113281,0,0,0,0,2/8/2015 6:20:49 AM,
91,0,455,4472.82051282051,4095.89743589744,4001.53846153846,4374.8717948718,4548.20512820513,4412.82051282051,4312.82051282051,4408.71794871795,4648.71794871795,4124.10256410256,4327.69230769231,4212.30769230769,4011.79487179487,4156.92307692308,1662,1694,33.649,33.5600891113281,0,0,0,0,2/8/2015 6:20:49 AM,
92,0,408,4486.66666666667,4105.12820512821,3996.41025641026,4367.17948717949,4560.51282051282,4410.76923076923,4312.82051282051,4403.58974358974,4642.5641025641,4120.51282051282,4327.69230769231,4217.4358974359,4021.53846153846,4198.97435897436,1664,1693,33.657,33.5600891113281,0,0,0,0,2/8/2015 6:20:49 AM,
93,0,437,4494.35897435897,4106.66666666667,3990.25641025641,4371.28205128205,4546.66666666667,4412.30769230769,4312.82051282051,4410.25641025641,4643.07692307692,4121.02564102564,4332.82051282051,4205.12820512821,4030.25641025641,4231.79487179487,1662,1695,33.664,33.5600891113281,0,0,0,0,2/8/2015 6:20:49 AM,
94,0,423,4483.07692307692,4100,3996.92307692308,4373.84615384615,4532.30769230769,4415.89743589744,4312.82051282051,4415.89743589744,4653.84615384615,4135.89743589744,4330.25641025641,4197.94871794872,4028.20512820513,4205.12820512821,1663,1697,33.672,33.5600891113281,0,0,0,0,2/8/2015 6:20:49 AM,
95,0,455,4470.76923076923,4101.53846153846,3992.30769230769,4375.89743589744,4541.02564102564,4412.82051282051,4312.82051282051,4414.8717948718,4654.8717948718,4138.46153846154,4331.28205128205,4199.48717948718,4027.69230769231,4189.23076923077,1663,1696,33.68,33.653923034668,0,0,0,0,2/8/2015 6:20:49 AM,
96,0,408,4478.46153846154,4102.05128205128,3988.20512820513,4381.02564102564,4537.94871794872,4413.84615384615,4312.82051282051,4415.89743589744,4647.69230769231,4124.10256410256,4335.38461538462,4210.76923076923,4021.02564102564,4196.41025641026,1664,1696,33.688,33.653923034668,0,0,0,0,2/8/2015 6:20:49 AM,
97,0,437,4498.46153846154,4102.05128205128,3995.89743589744,4380,4532.30769230769,4426.66666666667,4312.82051282051,4418.97435897436,4653.33333333333,4118.46153846154,4334.8717948718,4220,4010.25641025641,4201.53846153846,1664,1695,33.696,33.653923034668,0,0,0,0,2/8/2015 6:20:49 AM,
98,0,423,4512.82051282051,4114.8717948718,3998.97435897436,4379.48717948718,4548.71794871795,4436.41025641026,4312.30769230769,4419.48717948718,4655.38461538462,4123.07692307692,4339.48717948718,4215.89743589744,4023.07692307692,4211.28205128205,1665,1695,33.703,33.653923034668,0,0,0,0,2/8/2015 6:20:49 AM,
99,0,455,4514.35897435897,4122.5641025641,4008.20512820513,4384.10256410256,4561.02564102564,4435.38461538462,4313.33333333333,4420,4648.71794871795,4123.07692307692,4353.84615384615,4214.35897435897,4044.10256410256,4216.41025641026,1665,1693,33.711,33.653923034668,0,0,0,0,2/8/2015 6:20:49 AM,
100,0,408,4511.28205128205,4118.97435897436,4018.46153846154,4384.61538461538,4538.97435897436,4429.23076923077,4312.30769230769,4420.51282051282,4656.92307692308,4121.53846153846,4357.4358974359,4221.02564102564,4047.17948717949,4215.89743589744,1664,1693,33.719,33.653923034668,0,0,0,0,2/8/2015 6:20:49 AM,
101,0,437,4507.69230769231,4119.48717948718,4013.84615384615,4387.69230769231,4515.38461538462,4424.10256410256,4312.30769230769,4421.02564102564,4667.69230769231,4123.58974358974,4346.15384615385,4218.46153846154,4033.84615384615,4217.4358974359,1665,1691,33.727,33.653923034668,0,0,0,0,2/8/2015 6:20:49 AM,
102,0,423,4508.71794871795,4122.05128205128,4015.89743589744,4397.94871794872,4531.28205128205,4417.94871794872,4316.92307692308,4417.4358974359,4660.51282051282,4123.58974358974,4341.02564102564,4215.38461538462,4019.48717948718,4202.5641025641,1663,1691,33.735,33.653923034668,0,0,0,0,2/8/2015 6:20:49 AM,
103,0,455,4521.53846153846,4121.02564102564,4021.53846153846,4398.97435897436,4548.71794871795,4416.92307692308,4320.51282051282,4413.84615384615,4654.8717948718,4121.02564102564,4340,4223.07692307692,4021.53846153846,4186.66666666667,1665,1691,33.743,33.653923034668,0,0,0,0,2/8/2015 6:20:49 AM,
104,0,408,4521.02564102564,4119.48717948718,4010.76923076923,4384.10256410256,4537.94871794872,4422.05128205128,4319.48717948718,4415.89743589744,4659.48717948718,4120,4332.82051282051,4222.05128205128,4029.23076923077,4195.38461538462,1664,1692,33.751,33.653923034668,0,0,0,0,2/8/2015 6:20:49 AM,
105,0,437,4517.4358974359,4118.46153846154,3995.89743589744,4380,4531.79487179487,4427.17948717949,4318.46153846154,4421.53846153846,4658.46153846154,4120.51282051282,4344.10256410256,4215.38461538462,4027.69230769231,4198.46153846154,1664,1693,33.759,33.653923034668,0,0,0,0,2/8/2015 6:20:49 AM,
106,0,423,4523.58974358974,4122.05128205128,3993.33333333333,4392.30769230769,4544.10256410256,4429.23076923077,4319.48717948718,4420.51282051282,4652.82051282051,4121.53846153846,4360,4216.92307692308,4026.66666666667,4202.05128205128,1663,1693,33.767,33.653923034668,0,0,0,0,2/8/2015 6:20:49 AM,
107,0,455,4517.94871794872,4123.07692307692,4006.15384615385,4391.79487179487,4543.07692307692,4424.10256410256,4320,4413.84615384615,4647.69230769231,4122.5641025641,4345.64102564103,4216.41025641026,4033.84615384615,4209.74358974359,1663,1693,33.775,33.653923034668,0,0,0,0,2/8/2015 6:20:49 AM,
108,0,408,4516.92307692308,4118.46153846154,4010.25641025641,4383.07692307692,4536.92307692308,4418.97435897436,4318.97435897436,4411.28205128205,4644.61538461538,4127.69230769231,4336.92307692308,4215.38461538462,4035.89743589744,4175.89743589744,1663,1693,33.782,33.653923034668,0,0,0,0,2/8/2015 6:20:49 AM,
109,0,437,4525.12820512821,4119.48717948718,3993.84615384615,4386.15384615385,4552.82051282051,4424.10256410256,4318.46153846154,4410.25641025641,4646.66666666667,4135.38461538462,4352.82051282051,4215.89743589744,4035.38461538462,4157.94871794872,1663,1692,33.789,33.653923034668,0,0,0,0,2/8/2015 6:20:49 AM,
110,0,423,4512.82051282051,4124.61538461538,3989.23076923077,4384.61538461538,4560.51282051282,4430.25641025641,4318.97435897436,4405.12820512821,4648.71794871795,4140.51282051282,4352.82051282051,4207.17948717949,4034.8717948718,4212.82051282051,1663,1691,33.797,33.653923034668,0,0,0,0,2/8/2015 6:20:49 AM,
111,0,455,4503.07692307692,4125.12820512821,4004.61538461539,4381.02564102564,4550.25641025641,4426.66666666667,4318.97435897436,4403.58974358974,4646.66666666667,4134.8717948718,4340,4198.97435897436,4026.66666666667,4239.48717948718,1664,1692,33.805,33.7790298461914,0,0,0,0,2/8/2015 6:20:49 AM,
112,0,408,4516.92307692308,4125.12820512821,4008.71794871795,4389.74358974359,4552.30769230769,4424.61538461538,4318.97435897436,4411.28205128205,4651.28205128205,4122.05128205128,4340,4204.10256410256,4026.15384615385,4202.5641025641,1663,1692,33.813,33.7790298461914,0,0,0,0,2/8/2015 6:20:49 AM,
113,0,437,4516.41025641026,4121.53846153846,3993.84615384615,4391.28205128205,4556.92307692308,4426.15384615385,4318.97435897436,4418.97435897436,4656.92307692308,4120,4343.07692307692,4204.61538461538,4036.92307692308,4184.61538461538,1664,1693,33.821,33.7790298461914,0,0,0,0,2/8/2015 6:20:49 AM,
114,0,423,4501.53846153846,4109.74358974359,3987.17948717949,4383.07692307692,4547.69230769231,4421.53846153846,4318.97435897436,4416.92307692308,4652.30769230769,4128.20512820513,4342.5641025641,4200.51282051282,4034.8717948718,4175.89743589744,1663,1693,33.829,33.7790298461914,0,0,0,0,2/8/2015 6:20:49 AM,
115,0,455,4501.02564102564,4103.58974358974,3996.92307692308,4384.10256410256,4533.33333333333,4416.92307692308,4318.97435897436,4414.8717948718,4647.69230769231,4127.17948717949,4340,4204.61538461538,4019.48717948718,4156.92307692308,1665,1693,33.836,33.7790298461914,0,0,0,0,2/8/2015 6:20:50 AM,
116,0,408,4504.61538461538,4113.84615384615,4007.17948717949,4379.48717948718,4522.05128205128,4417.94871794872,4318.97435897436,4419.48717948718,4648.71794871795,4118.46153846154,4336.92307692308,4204.10256410256,4014.8717948718,4184.10256410256,1664,1693,33.844,33.7790298461914,0,0,0,0,2/8/2015 6:20:50 AM,
117,0,437,4494.35897435897,4122.05128205128,3998.46153846154,4371.28205128205,4523.07692307692,4423.58974358974,4318.97435897436,4427.17948717949,4649.74358974359,4117.4358974359,4342.05128205128,4197.4358974359,4026.15384615385,4225.12820512821,1665,1693,33.852,33.7790298461914,0,0,0,0,2/8/2015 6:20:50 AM,
118,0,423,4494.35897435897,4122.5641025641,3986.66666666667,4379.48717948718,4535.89743589744,4426.15384615385,4318.97435897436,4428.20512820513,4650.76923076923,4123.07692307692,4342.5641025641,4199.48717948718,4028.20512820513,4196.92307692308,1664,1691,33.86,33.7790298461914,0,0,0,0,2/8/2015 6:20:50 AM,
119,0,455,4517.94871794872,4118.97435897436,3994.8717948718,4388.20512820513,4541.53846153846,4418.97435897436,4318.97435897436,4420.51282051282,4642.05128205128,4121.53846153846,4333.33333333333,4204.10256410256,4023.07692307692,4155.89743589744,1664,1692,33.869,33.7790298461914,0,0,0,0,2/8/2015 6:20:50 AM,
120,0,408,4530.25641025641,4108.71794871795,4005.64102564103,4383.58974358974,4543.07692307692,4407.17948717949,4318.97435897436,4419.48717948718,4632.30769230769,4109.23076923077,4331.79487179487,4203.07692307692,4025.64102564103,4186.15384615385,1664,1690,33.877,33.7790298461914,0,0,0,0,2/8/2015 6:20:50 AM,
121,0,437,4518.46153846154,4108.20512820513,4001.53846153846,4375.89743589744,4556.92307692308,4408.20512820513,4318.46153846154,4426.66666666667,4641.02564102564,4104.61538461538,4337.94871794872,4202.5641025641,4016.92307692308,4224.10256410256,1663,1691,33.883,33.7790298461914,0,0,0,0,2/8/2015 6:20:50 AM,
122,0,423,4520.51282051282,4118.46153846154,3989.74358974359,4371.79487179487,4563.58974358974,4413.33333333333,4319.48717948718,4429.74358974359,4651.28205128205,4120,4340,4202.05128205128,4005.12820512821,4200.51282051282,1665,1689,33.891,33.7790298461914,0,0,0,0,2/8/2015 6:20:50 AM,
123,0,455,4523.07692307692,4113.84615384615,3985.12820512821,4373.84615384615,4540.51282051282,4404.61538461538,4318.46153846154,4429.74358974359,4645.64102564103,4130.25641025641,4342.05128205128,4198.97435897436,4018.46153846154,4171.79487179487,1664,1690,33.899,33.7790298461914,0,0,0,0,2/8/2015 6:20:50 AM,
124,0,408,4492.82051282051,4108.20512820513,3994.8717948718,4381.53846153846,4523.58974358974,4392.30769230769,4316.41025641026,4430.25641025641,4641.02564102564,4119.48717948718,4342.05128205128,4197.94871794872,4032.82051282051,4179.48717948718,1664,1692,33.907,33.7790298461914,0,0,0,0,2/8/2015 6:20:50 AM,
125,0,437,4483.58974358974,4123.58974358974,4003.07692307692,4384.61538461538,4531.79487179487,4400,4317.4358974359,4429.74358974359,4642.5641025641,4107.69230769231,4330.25641025641,4198.97435897436,4022.5641025641,4188.20512820513,1664,1692,33.915,33.7790298461914,0,0,0,0,2/8/2015 6:20:50 AM,
126,0,423,4501.02564102564,4124.10256410256,4001.53846153846,4382.5641025641,4542.5641025641,4421.02564102564,4319.48717948718,4434.35897435897,4638.46153846154,4105.12820512821,4322.5641025641,4208.20512820513,4015.89743589744,4176.41025641026,1664,1693,33.922,33.7790298461914,0,0,0,0,2/8/2015 6:20:50 AM,
127,0,455,4502.05128205128,4108.71794871795,4000,4382.5641025641,4536.41025641026,4428.20512820513,4318.97435897436,4440,4640,4110.76923076923,4331.28205128205,4219.48717948718,4018.46153846154,4156.41025641026,1664,1692,33.93,33.9041366577148,0,0,0,0,2/8/2015 6:20:50 AM,
128,0,408,4502.05128205128,4116.41025641026,4002.05128205128,4386.15384615385,4538.46153846154,4424.61538461538,4317.4358974359,4440.51282051282,4648.20512820513,4121.02564102564,4347.17948717949,4213.33333333333,4020.51282051282,4172.30769230769,1664,1692,33.938,33.9041366577148,0,0,0,0,2/8/2015 6:20:50 AM,
0,0,449,4509.23076923077,4126.15384615385,4001.53846153846,4389.74358974359,4552.82051282051,4423.07692307692,4317.94871794872,4442.5641025641,4649.23076923077,4125.64102564103,4351.79487179487,4198.97435897436,4028.20512820513,4210.25641025641,1664,1691,33.946,33.9041366577148,0,0,0,0,2/8/2015 6:20:50 AM,
1,0,441,4495.38461538462,4118.97435897436,4001.53846153846,4390.25641025641,4556.41025641026,4415.38461538462,4318.46153846154,4444.61538461538,4647.17948717949,4125.12820512821,4337.4358974359,4201.53846153846,4029.23076923077,4221.02564102564,1664,1692,33.954,33.9041366577148,0,0,0,0,2/8/2015 6:20:50 AM,
2,0,468,4482.05128205128,4116.92307692308,4011.28205128205,4384.61538461538,4554.8717948718,4406.66666666667,4318.46153846154,4440,4650.25641025641,4125.64102564103,4323.58974358974,4210.76923076923,4018.97435897436,4198.97435897436,1665,1690,33.961,33.9041366577148,0,0,0,0,2/8/2015 6:20:50 AM,
3,0,491,4493.84615384615,4123.07692307692,4022.5641025641,4380,4553.84615384615,4408.71794871795,4317.4358974359,4435.89743589744,4653.33333333333,4123.07692307692,4324.10256410256,4214.35897435897,4013.33333333333,4175.38461538462,1663,1691,33.969,33.9041366577148,0,0,0,0,2/8/2015 6:20:50 AM,
4,0,475,4507.69230769231,4123.07692307692,4018.97435897436,4386.15384615385,4552.82051282051,4411.28205128205,4318.46153846154,4432.82051282051,4643.07692307692,4118.97435897436,4337.4358974359,4223.07692307692,4022.5641025641,4177.94871794872,1664,1691,33.977,33.9041366577148,0,0,0,0,2/8/2015 6:20:50 AM,
5,0,463,4517.94871794872,4117.4358974359,4007.17948717949,4395.89743589744,4554.8717948718,4410.76923076923,4318.46153846154,4427.17948717949,4630.76923076923,4119.48717948718,4346.15384615385,4235.89743589744,4032.82051282051,4200,1664,1691,33.985,33.9041366577148,0,0,0,0,2/8/2015 6:20:50 AM,
6,0,480,4518.97435897436,4121.53846153846,4012.82051282051,4396.92307692308,4553.84615384615,4420.51282051282,4314.35897435897,4435.38461538462,4634.8717948718,4121.02564102564,4342.5641025641,4231.79487179487,4028.20512820513,4213.84615384615,1664,1692,33.993,33.9041366577148,0,0,0,0,2/8/2015 6:20:50 AM,
7,0,0,4511.28205128205,4137.4358974359,4023.58974358974,4396.41025641026,4546.66666666667,4429.74358974359,4311.28205128205,4455.38461538462,4649.74358974359,4122.05128205128,4343.07692307692,4222.05128205128,4018.46153846154,4191.28205128205,1664,1692,34.001,33.9041366577148,0,0,0,0,2/8/2015 6:20:50 AM,
8,0,410,4507.17948717949,4141.53846153846,4024.61538461539,4400,4551.79487179487,4428.20512820513,4312.30769230769,4465.12820512821,4658.46153846154,4123.07692307692,4349.74358974359,4229.74358974359,4021.02564102564,4164.10256410256,1664,1693,34.008,33.9041366577148,0,0,0,0,2/8/2015 6:20:50 AM,
9,0,426,4504.61538461538,4119.48717948718,4020,4396.92307692308,4572.30769230769,4427.17948717949,4312.82051282051,4460,4655.89743589744,4122.5641025641,4338.46153846154,4234.35897435897,4020.51282051282,4182.5641025641,1664,1691,34.017,33.9041366577148,0,0,0,0,2/8/2015 6:20:50 AM,
10,0,423,4505.64102564103,4102.05128205128,4008.20512820513,4388.71794871795,4571.79487179487,4427.69230769231,4312.30769230769,4455.89743589744,4651.28205128205,4124.61538461538,4325.64102564103,4212.30769230769,4009.23076923077,4210.76923076923,1664,1692,34.025,33.9041366577148,0,0,0,0,2/8/2015 6:20:50 AM,
11,0,455,4511.28205128205,4108.71794871795,4000,4383.07692307692,4557.94871794872,4428.71794871795,4313.33333333333,4460,4651.28205128205,4123.07692307692,4334.35897435897,4205.12820512821,4006.15384615385,4192.82051282051,1663,1691,34.033,33.9041366577148,0,0,0,0,2/8/2015 6:20:50 AM,
12,0,408,4511.28205128205,4114.8717948718,4004.61538461539,4381.53846153846,4557.4358974359,4428.71794871795,4314.35897435897,4456.92307692308,4648.71794871795,4116.41025641026,4336.92307692308,4217.94871794872,4008.20512820513,4173.33333333333,1663,1693,34.041,33.9041366577148,0,0,0,0,2/8/2015 6:20:50 AM,
13,0,437,4505.12820512821,4107.69230769231,4006.66666666667,4382.05128205128,4547.17948717949,4418.97435897436,4313.33333333333,4443.58974358974,4642.5641025641,4116.92307692308,4331.79487179487,4211.28205128205,4010.25641025641,4201.53846153846,1664,1692,34.049,33.9041366577148,0,0,0,0,2/8/2015 6:20:50 AM,
14,0,423,4508.20512820513,4106.66666666667,4002.05128205128,4381.53846153846,4534.8717948718,4410.25641025641,4313.33333333333,4432.30769230769,4644.61538461538,4126.15384615385,4338.97435897436,4204.10256410256,4022.5641025641,4208.20512820513,1662,1695,34.056,34.0292434692383,0,0,0,0,2/8/2015 6:20:50 AM,
15,0,455,4509.23076923077,4116.92307692308,4002.5641025641,4385.12820512821,4550.25641025641,4411.79487179487,4316.92307692308,4429.74358974359,4650.25641025641,4126.15384615385,4342.5641025641,4217.4358974359,4024.10256410256,4169.23076923077,1664,1694,34.064,34.0292434692383,0,0,0,0,2/8/2015 6:20:50 AM,
16,0,0,4496.92307692308,4122.05128205128,4004.61538461539,4391.28205128205,4560,4411.79487179487,4319.48717948718,4433.33333333333,4648.20512820513,4112.82051282051,4327.17948717949,4224.61538461538,4004.10256410256,4163.58974358974,1664,1695,34.072,34.0292434692383,0,0,0,0,2/8/2015 6:20:50 AM,
17,0,0,4495.38461538462,4120,4007.17948717949,4391.79487179487,4554.8717948718,4412.30769230769,4319.48717948718,4435.89743589744,4643.58974358974,4108.20512820513,4320,4213.84615384615,4002.5641025641,4204.10256410256,1664,1695,34.079,34.0292434692383,0,0,0,0,2/8/2015 6:20:50 AM,
18,0,0,4506.66666666667,4114.8717948718,4016.41025641026,4390.76923076923,4573.33333333333,4421.02564102564,4318.97435897436,4434.8717948718,4644.10256410256,4120.51282051282,4335.89743589744,4212.82051282051,4022.5641025641,4218.97435897436,1664,1694,34.087,34.0605201721191,0,0,0,0,2/8/2015 6:20:50 AM,
19,0,0,4508.20512820513,4106.15384615385,4021.02564102564,4389.23076923077,4578.97435897436,4415.38461538462,4320,4433.84615384615,4647.17948717949,4124.61538461538,4342.05128205128,4221.02564102564,4019.48717948718,4188.20512820513,1664,1694,34.094,34.0605201721191,0,0,0,0,2/8/2015 6:20:50 AM,
20,0,0,4497.94871794872,4102.05128205128,4004.10256410256,4375.89743589744,4548.71794871795,4403.07692307692,4319.48717948718,4432.82051282051,4649.23076923077,4113.84615384615,4332.30769230769,4212.82051282051,4003.07692307692,4175.89743589744,1664,1693,34.102,34.0605201721191,0,0,0,0,2/8/2015 6:20:50 AM,
21,0,0,4483.58974358974,4104.61538461538,3990.76923076923,4362.5641025641,4531.28205128205,4409.23076923077,4314.35897435897,4426.66666666667,4644.61538461538,4112.82051282051,4330.25641025641,4205.12820512821,4007.17948717949,4175.89743589744,1664,1693,34.111,34.0605201721191,0,0,0,0,2/8/2015 6:20:50 AM,
22,0,0,4477.4358974359,4104.10256410256,4003.07692307692,4377.94871794872,4534.35897435897,4415.38461538462,4310.76923076923,4424.10256410256,4639.48717948718,4121.53846153846,4336.92307692308,4216.92307692308,4017.4358974359,4164.61538461538,1664,1693,34.12,34.0605201721191,0,0,0,0,2/8/2015 6:20:50 AM,
23,0,0,4490.76923076923,4105.64102564103,4011.79487179487,4393.84615384615,4543.58974358974,4410.25641025641,4312.30769230769,4422.05128205128,4638.97435897436,4120.51282051282,4336.92307692308,4225.12820512821,4016.41025641026,4190.25641025641,1663,1694,34.127,34.0605201721191,0,0,0,0,2/8/2015 6:20:50 AM,
24,0,0,4502.05128205128,4105.64102564103,4000.51282051282,4380,4556.41025641026,4409.74358974359,4314.35897435897,4412.82051282051,4633.33333333333,4114.8717948718,4333.33333333333,4214.8717948718,4016.41025641026,4217.94871794872,1664,1692,34.135,34.0605201721191,0,0,0,0,2/8/2015 6:20:50 AM,
25,0,0,4495.38461538462,4103.58974358974,3998.97435897436,4367.17948717949,4555.38461538462,4409.74358974359,4313.33333333333,4411.79487179487,4629.23076923077,4118.46153846154,4333.33333333333,4216.41025641026,4020,4202.05128205128,1663,1692,34.141,34.0605201721191,0,0,0,0,2/8/2015 6:20:50 AM,
26,0,0,4504.10256410256,4116.92307692308,4006.15384615385,4378.97435897436,4556.41025641026,4407.69230769231,4313.33333333333,4424.61538461538,4640,4126.66666666667,4341.02564102564,4222.05128205128,4027.69230769231,4207.17948717949,1664,1693,34.15,34.0605201721191,0,0,0,0,2/8/2015 6:20:50 AM,
27,0,0,4509.74358974359,4127.69230769231,3997.94871794872,4389.74358974359,4569.74358974359,4414.8717948718,4313.84615384615,4431.79487179487,4651.28205128205,4128.20512820513,4352.82051282051,4208.20512820513,4034.8717948718,4221.53846153846,1664,1693,34.157,34.0605201721191,0,0,0,0,2/8/2015 6:20:50 AM,
28,0,0,4473.33333333333,4117.4358974359,3992.30769230769,4385.12820512821,4566.15384615385,4426.66666666667,4313.84615384615,4431.28205128205,4649.74358974359,4124.61538461538,4349.23076923077,4199.48717948718,4029.23076923077,4194.35897435897,1664,1694,34.166,34.0605201721191,0,0,0,0,2/8/2015 6:20:50 AM,
29,0,0,4454.8717948718,4114.8717948718,3996.41025641026,4380.51282051282,4550.76923076923,4429.23076923077,4313.84615384615,4437.94871794872,4647.17948717949,4121.02564102564,4336.92307692308,4202.05128205128,4021.02564102564,4176.41025641026,1664,1691,34.174,34.0605201721191,0,0,0,0,2/8/2015 6:20:50 AM,
30,0,0,4472.82051282051,4120.51282051282,3997.94871794872,4378.46153846154,4556.92307692308,4424.61538461538,4314.35897435897,4445.64102564103,4650.76923076923,4120,4335.89743589744,4204.10256410256,4020.51282051282,4183.07692307692,1663,1690,34.182,34.1543502807617,0,0,0,0,2/8/2015 6:20:50 AM,
31,0,0,4477.4358974359,4115.38461538462,4001.02564102564,4380,4570.76923076923,4416.92307692308,4314.8717948718,4438.46153846154,4649.23076923077,4123.07692307692,4330.76923076923,4209.23076923077,4016.92307692308,4170.25641025641,1664,1689,34.189,34.1543502807617,0,0,0,0,2/8/2015 6:20:50 AM,
32,0,0,4477.4358974359,4115.38461538462,4007.17948717949,4387.17948717949,4567.69230769231,4416.92307692308,4314.8717948718,4430.25641025641,4641.53846153846,4120.51282051282,4317.94871794872,4218.97435897436,4012.30769230769,4161.53846153846,1664,1690,34.196,34.1543502807617,0,0,0,0,2/8/2015 6:20:50 AM,
33,0,0,4489.74358974359,4123.07692307692,4005.12820512821,4386.66666666667,4551.79487179487,4421.53846153846,4314.8717948718,4432.82051282051,4643.07692307692,4111.28205128205,4322.5641025641,4217.4358974359,4016.92307692308,4170.25641025641,1664,1693,34.204,34.1543502807617,0,0,0,0,2/8/2015 6:20:50 AM,
34,0,0,4482.05128205128,4120,3996.92307692308,4379.48717948718,4547.17948717949,4417.4358974359,4314.8717948718,4428.71794871795,4645.64102564103,4111.79487179487,4340,4205.64102564103,4024.61538461539,4181.02564102564,1665,1694,34.212,34.1543502807617,0,0,0,0,2/8/2015 6:20:50 AM,
35,0,0,4468.20512820513,4121.53846153846,3998.97435897436,4383.58974358974,4550.25641025641,4410.25641025641,4314.8717948718,4416.41025641026,4635.89743589744,4113.84615384615,4346.66666666667,4204.61538461538,4016.92307692308,4196.41025641026,1665,1694,34.22,34.1543502807617,0,0,0,0,2/8/2015 6:20:50 AM,
36,0,0,4481.53846153846,4133.84615384615,4004.61538461539,4392.30769230769,4543.07692307692,4410.76923076923,4314.8717948718,4417.94871794872,4631.28205128205,4102.5641025641,4336.92307692308,4211.79487179487,4007.69230769231,4196.92307692308,1665,1693,34.227,34.1543502807617,0,0,0,0,2/8/2015 6:20:50 AM,
37,0,0,4488.20512820513,4127.69230769231,4012.30769230769,4386.66666666667,4550.25641025641,4416.41025641026,4314.8717948718,4429.23076923077,4643.07692307692,4095.38461538462,4322.05128205128,4217.4358974359,4010.76923076923,4172.82051282051,1665,1692,34.235,34.1543502807617,0,0,0,0,2/8/2015 6:20:50 AM,
38,0,0,4476.92307692308,4107.17948717949,4016.92307692308,4375.38461538462,4578.97435897436,4420.51282051282,4314.8717948718,4432.30769230769,4651.28205128205,4106.15384615385,4318.97435897436,4213.84615384615,4011.28205128205,4162.5641025641,1666,1692,34.243,34.1543502807617,0,0,0,0,2/8/2015 6:20:50 AM,
39,0,0,4469.74358974359,4106.66666666667,4008.20512820513,4380.51282051282,4590.76923076923,4421.02564102564,4314.8717948718,4428.20512820513,4646.66666666667,4114.35897435897,4325.12820512821,4204.61538461538,4007.69230769231,4192.30769230769,1666,1689,34.251,34.1543502807617,0,0,0,0,2/8/2015 6:20:50 AM,
40,0,0,4462.5641025641,4114.8717948718,3995.38461538462,4386.66666666667,4563.58974358974,4409.74358974359,4314.8717948718,4429.23076923077,4640,4107.69230769231,4324.61538461538,4198.46153846154,4006.15384615385,4211.79487179487,1667,1689,34.259,34.1543502807617,0,0,0,0,2/8/2015 6:20:50 AM,
41,0,0,4457.4358974359,4102.5641025641,3990.76923076923,4367.17948717949,4526.15384615385,4386.66666666667,4314.8717948718,4426.66666666667,4634.8717948718,4103.58974358974,4320,4197.4358974359,3998.97435897436,4189.23076923077,1666,1688,34.266,34.1543502807617,0,0,0,0,2/8/2015 6:20:50 AM,
42,0,0,4467.17948717949,4092.82051282051,3990.76923076923,4357.4358974359,4529.23076923077,4378.46153846154,4314.8717948718,4411.79487179487,4631.28205128205,4107.17948717949,4323.07692307692,4200,3993.33333333333,4179.48717948718,1667,1689,34.274,34.1543502807617,0,0,0,0,2/8/2015 6:20:50 AM,
43,0,0,4480,4110.25641025641,3991.79487179487,4384.61538461538,4566.15384615385,4389.74358974359,4314.8717948718,4405.64102564103,4634.35897435897,4104.61538461538,4328.20512820513,4200,4003.58974358974,4201.02564102564,1667,1689,34.282,34.1543502807617,0,0,0,0,2/8/2015 6:20:50 AM,
44,0,0,4480,4123.07692307692,3996.41025641026,4401.53846153846,4578.97435897436,4403.58974358974,4314.8717948718,4413.84615384615,4639.48717948718,4097.94871794872,4323.07692307692,4201.02564102564,4012.82051282051,4206.15384615385,1667,1691,34.29,34.1543502807617,0,0,0,0,2/8/2015 6:20:50 AM,
45,0,0,4476.41025641026,4122.5641025641,3998.97435897436,4387.69230769231,4570.76923076923,4408.71794871795,4314.8717948718,4415.89743589744,4642.5641025641,4104.61538461538,4313.33333333333,4201.53846153846,4003.07692307692,4185.64102564103,1666,1691,34.298,34.1543502807617,0,0,0,0,2/8/2015 6:20:50 AM,
46,0,0,4467.17948717949,4124.61538461538,4005.12820512821,4376.41025641026,4569.23076923077,4405.64102564103,4314.8717948718,4415.38461538462,4642.5641025641,4111.79487179487,4318.46153846154,4204.10256410256,3993.33333333333,4172.30769230769,1664,1692,34.306,34.2794609069824,0,0,0,0,2/8/2015 6:20:50 AM,
47,0,0,4452.82051282051,4114.8717948718,4008.71794871795,4374.8717948718,4562.05128205128,4397.4358974359,4314.8717948718,4425.12820512821,4643.07692307692,4102.05128205128,4324.10256410256,4206.15384615385,3990.76923076923,4167.69230769231,1664,1694,34.313,34.2794609069824,0,0,0,0,2/8/2015 6:20:50 AM,
48,0,0,4447.17948717949,4099.48717948718,3993.84615384615,4371.28205128205,4549.23076923077,4393.84615384615,4314.8717948718,4429.23076923077,4643.58974358974,4096.92307692308,4307.69230769231,4201.53846153846,3987.69230769231,4165.64102564103,1665,1692,34.321,34.2794609069824,0,0,0,0,2/8/2015 6:20:50 AM,
49,0,0,4444.10256410256,4101.53846153846,3987.69230769231,4372.30769230769,4540.51282051282,4396.92307692308,4314.8717948718,4426.15384615385,4643.07692307692,4110.25641025641,4312.30769230769,4198.46153846154,3992.82051282051,4194.8717948718,1663,1693,34.329,34.2794609069824,0,0,0,0,2/8/2015 6:20:50 AM,
50,0,0,4445.12820512821,4111.79487179487,4005.64102564103,4375.89743589744,4546.66666666667,4398.46153846154,4314.8717948718,4428.20512820513,4649.23076923077,4124.10256410256,4338.46153846154,4203.07692307692,4009.74358974359,4235.89743589744,1663,1692,34.337,34.2794609069824,0,0,0,0,2/8/2015 6:20:50 AM,
51,0,0,4459.48717948718,4110.76923076923,4007.17948717949,4378.46153846154,4567.69230769231,4398.97435897436,4314.8717948718,4427.69230769231,4657.4358974359,4125.64102564103,4325.12820512821,4202.5641025641,4009.23076923077,4233.33333333333,1662,1692,34.345,34.2794609069824,0,0,0,0,2/8/2015 6:20:50 AM,
52,0,0,4463.07692307692,4102.05128205128,3989.23076923077,4386.15384615385,4571.28205128205,4393.84615384615,4314.8717948718,4423.07692307692,4656.92307692308,4122.05128205128,4308.20512820513,4192.30769230769,3995.89743589744,4196.92307692308,1662,1692,34.352,34.2794609069824,0,0,0,0,2/8/2015 6:20:50 AM,
53,0,0,4443.58974358974,4093.33333333333,3986.15384615385,4384.61538461538,4565.64102564103,4382.05128205128,4314.8717948718,4418.46153846154,4654.8717948718,4114.8717948718,4329.74358974359,4185.64102564103,4001.53846153846,4177.94871794872,1662,1692,34.36,34.2794609069824,0,0,0,0,2/8/2015 6:20:50 AM,
54,0,0,4432.82051282051,4091.28205128205,3986.15384615385,4370.25641025641,4574.35897435897,4376.92307692308,4314.8717948718,4414.35897435897,4658.97435897436,4110.76923076923,4330.76923076923,4180,4012.30769230769,4189.74358974359,1662,1692,34.368,34.2794609069824,0,0,0,0,2/8/2015 6:20:50 AM,
55,0,0,4442.5641025641,4093.84615384615,3990.76923076923,4367.69230769231,4565.64102564103,4382.5641025641,4314.8717948718,4419.48717948718,4666.15384615385,4118.46153846154,4306.66666666667,4184.10256410256,4010.76923076923,4209.74358974359,1663,1692,34.376,34.2794609069824,0,0,0,0,2/8/2015 6:20:50 AM,
56,0,0,4455.38461538462,4090.25641025641,4006.66666666667,4382.5641025641,4542.5641025641,4391.79487179487,4314.8717948718,4429.23076923077,4671.28205128205,4123.58974358974,4309.23076923077,4198.97435897436,4010.25641025641,4217.94871794872,1663,1692,34.384,34.2794609069824,0,0,0,0,2/8/2015 6:20:50 AM,
57,0,0,4462.5641025641,4093.84615384615,3998.97435897436,4387.69230769231,4559.48717948718,4389.74358974359,4314.8717948718,4429.74358974359,4665.64102564103,4114.8717948718,4323.58974358974,4194.35897435897,4012.30769230769,4214.35897435897,1663,1691,34.392,34.2794609069824,0,0,0,0,2/8/2015 6:20:50 AM,
58,0,0,4456.41025641026,4098.46153846154,3983.07692307692,4372.82051282051,4583.58974358974,4382.05128205128,4314.35897435897,4425.64102564103,4657.94871794872,4108.20512820513,4318.97435897436,4178.46153846154,4001.02564102564,4201.53846153846,1664,1692,34.399,34.2794609069824,0,0,0,0,2/8/2015 6:20:50 AM,
59,0,0,4441.02564102564,4085.12820512821,3992.30769230769,4363.07692307692,4572.82051282051,4383.58974358974,4314.35897435897,4430.25641025641,4667.69230769231,4108.71794871795,4311.28205128205,4189.23076923077,3985.12820512821,4180,1664,1691,34.407,34.2794609069824,0,0,0,0,2/8/2015 6:20:50 AM,
60,0,0,4438.97435897436,4080,3995.38461538462,4373.84615384615,4567.69230769231,4389.74358974359,4314.8717948718,4432.82051282051,4673.84615384615,4105.64102564103,4311.28205128205,4201.53846153846,3989.23076923077,4174.8717948718,1663,1693,34.415,34.2794609069824,0,0,0,0,2/8/2015 6:20:50 AM,
61,0,0,4451.79487179487,4094.35897435898,3984.61538461539,4382.05128205128,4568.71794871795,4389.23076923077,4314.35897435897,4419.48717948718,4658.46153846154,4107.17948717949,4319.48717948718,4189.23076923077,4004.61538461539,4201.53846153846,1665,1692,34.423,34.2794609069824,0,0,0,0,2/8/2015 6:20:50 AM,
62,0,0,4457.94871794872,4095.89743589744,3991.28205128205,4378.46153846154,4552.30769230769,4381.53846153846,4313.84615384615,4412.30769230769,4649.23076923077,4117.4358974359,4326.66666666667,4187.17948717949,4007.69230769231,4211.79487179487,1664,1693,34.431,34.4045677185059,0,0,0,0,2/8/2015 6:20:50 AM,
63,0,0,4452.82051282051,4090.25641025641,3996.92307692308,4375.89743589744,4562.05128205128,4378.46153846154,4316.92307692308,4422.05128205128,4655.89743589744,4124.61538461538,4316.41025641026,4191.79487179487,4000.51282051282,4192.82051282051,1664,1693,34.438,34.4045677185059,0,0,0,0,2/8/2015 6:20:50 AM,
64,0,449,4457.94871794872,4101.02564102564,3987.69230769231,4380.51282051282,4592.82051282051,4388.71794871795,4320,4425.12820512821,4657.94871794872,4125.64102564103,4306.15384615385,4185.12820512821,4003.58974358974,4184.61538461538,1664,1693,34.446,34.4045677185059,0,0,0,0,2/8/2015 6:20:50 AM,
65,0,441,4470.76923076923,4105.64102564103,3992.30769230769,4382.05128205128,4581.02564102564,4399.48717948718,4320,4416.41025641026,4654.35897435897,4123.07692307692,4313.84615384615,4188.20512820513,4005.12820512821,4196.41025641026,1664,1692,34.454,34.4045677185059,0,0,0,0,2/8/2015 6:20:50 AM,
66,0,468,4474.35897435897,4096.92307692308,4006.15384615385,4382.5641025641,4564.10256410256,4397.4358974359,4318.97435897436,4418.97435897436,4655.89743589744,4115.38461538462,4321.02564102564,4201.53846153846,4001.53846153846,4223.07692307692,1663,1694,34.462,34.4045677185059,0,0,0,0,2/8/2015 6:20:50 AM,
67,0,491,4472.82051282051,4101.02564102564,4005.64102564103,4384.61538461538,4573.84615384615,4394.35897435897,4318.97435897436,4429.74358974359,4659.48717948718,4108.71794871795,4319.48717948718,4202.5641025641,4012.30769230769,4232.30769230769,1663,1694,34.47,34.4045677185059,0,0,0,0,2/8/2015 6:20:50 AM,
68,0,475,4472.82051282051,4109.23076923077,4005.64102564103,4381.02564102564,4569.23076923077,4403.58974358974,4319.48717948718,4432.30769230769,4662.5641025641,4109.74358974359,4325.12820512821,4197.4358974359,4020.51282051282,4218.97435897436,1663,1693,34.478,34.4045677185059,0,0,0,0,2/8/2015 6:20:50 AM,
69,0,463,4478.46153846154,4108.71794871795,4013.84615384615,4383.07692307692,4574.35897435897,4411.79487179487,4320,4431.79487179487,4664.10256410256,4111.79487179487,4327.69230769231,4197.4358974359,4014.35897435898,4218.46153846154,1662,1694,34.485,34.4045677185059,0,0,0,0,2/8/2015 6:20:50 AM,
70,0,480,4489.74358974359,4109.74358974359,4012.82051282051,4389.74358974359,4597.94871794872,4411.79487179487,4319.48717948718,4431.28205128205,4664.10256410256,4115.38461538462,4315.38461538462,4199.48717948718,4008.20512820513,4210.76923076923,1663,1693,34.493,34.4045677185059,0,0,0,0,2/8/2015 6:20:50 AM,
71,0,0,4492.82051282051,4109.23076923077,4009.74358974359,4384.10256410256,4586.66666666667,4412.30769230769,4319.48717948718,4430.76923076923,4664.61538461539,4127.17948717949,4311.28205128205,4206.15384615385,4011.28205128205,4188.71794871795,1662,1694,34.502,34.4045677185059,0,0,0,0,2/8/2015 6:20:50 AM,
72,0,410,4495.89743589744,4102.5641025641,4009.23076923077,4375.38461538462,4565.12820512821,4408.20512820513,4320.51282051282,4428.20512820513,4664.10256410256,4129.74358974359,4324.10256410256,4204.61538461538,4015.89743589744,4208.20512820513,1663,1693,34.51,34.4045677185059,0,0,0,0,2/8/2015 6:20:50 AM,
73,0,426,4509.23076923077,4107.69230769231,3999.48717948718,4386.15384615385,4571.28205128205,4398.97435897436,4318.97435897436,4422.05128205128,4658.46153846154,4110.76923076923,4330.76923076923,4189.74358974359,4018.46153846154,4258.46153846154,1662,1693,34.518,34.4045677185059,0,0,0,0,2/8/2015 6:20:50 AM,
74,0,423,4505.64102564103,4116.41025641026,3993.33333333333,4395.38461538462,4561.02564102564,4392.30769230769,4316.41025641026,4413.84615384615,4649.23076923077,4100,4323.58974358974,4186.15384615385,4018.97435897436,4250.25641025641,1663,1693,34.525,34.4045677185059,0,0,0,0,2/8/2015 6:20:50 AM,
75,0,455,4489.23076923077,4108.20512820513,4003.07692307692,4382.5641025641,4533.84615384615,4398.46153846154,4317.94871794872,4414.8717948718,4649.23076923077,4105.64102564103,4316.41025641026,4200,4010.25641025641,4219.48717948718,1663,1692,34.532,34.4045677185059,0,0,0,0,2/8/2015 6:20:50 AM,
76,0,408,4491.28205128205,4106.15384615385,4004.10256410256,4377.4358974359,4546.15384615385,4406.66666666667,4320.51282051282,4420,4660.51282051282,4105.12820512821,4326.15384615385,4202.5641025641,4011.28205128205,4222.5641025641,1662,1693,34.54,34.4045677185059,0,0,0,0,2/8/2015 6:20:50 AM,
77,0,437,4493.84615384615,4123.58974358974,4001.53846153846,4390.25641025641,4577.4358974359,4400.51282051282,4316.92307692308,4412.82051282051,4664.61538461539,4113.33333333333,4334.8717948718,4198.46153846154,4026.15384615385,4208.71794871795,1664,1693,34.548,34.4045677185059,0,0,0,0,2/8/2015 6:20:50 AM,
78,0,423,4494.35897435897,4127.69230769231,4013.84615384615,4398.46153846154,4578.46153846154,4392.30769230769,4311.79487179487,4404.10256410256,4657.4358974359,4123.07692307692,4327.69230769231,4207.17948717949,4031.79487179487,4205.12820512821,1664,1692,34.557,34.5296745300293,0,0,0,0,2/8/2015 6:20:50 AM,
79,0,455,4504.10256410256,4111.79487179487,4009.23076923077,4400,4558.97435897436,4400.51282051282,4312.82051282051,4400,4650.25641025641,4108.20512820513,4325.12820512821,4207.69230769231,4018.97435897436,4238.46153846154,1664,1692,34.565,34.5296745300293,0,0,0,0,2/8/2015 6:20:50 AM,
80,0,408,4491.28205128205,4109.74358974359,3992.82051282051,4392.30769230769,4547.69230769231,4404.10256410256,4313.84615384615,4390.25641025641,4646.66666666667,4095.38461538462,4323.07692307692,4201.53846153846,4003.58974358974,4216.41025641026,1664,1693,34.572,34.5296745300293,0,0,0,0,2/8/2015 6:20:50 AM,
81,0,437,4471.28205128205,4121.53846153846,3997.4358974359,4377.4358974359,4545.12820512821,4393.33333333333,4312.30769230769,4378.46153846154,4646.66666666667,4108.20512820513,4320,4200.51282051282,4004.10256410256,4173.84615384615,1665,1691,34.58,34.5296745300293,0,0,0,0,2/8/2015 6:20:50 AM,
82,0,423,4480.51282051282,4122.05128205128,4001.02564102564,4379.48717948718,4533.84615384615,4388.20512820513,4311.79487179487,4375.89743589744,4646.66666666667,4113.84615384615,4325.12820512821,4188.71794871795,4013.33333333333,4202.5641025641,1663,1692,34.587,34.5609512329102,0,0,0,0,2/8/2015 6:20:50 AM,
83,0,455,4484.61538461538,4110.76923076923,3988.71794871795,4384.61538461538,4523.07692307692,4385.12820512821,4313.33333333333,4372.30769230769,4648.71794871795,4102.05128205128,4322.5641025641,4182.05128205128,4014.8717948718,4214.35897435897,1665,1692,34.595,34.5609512329102,0,0,0,0,2/8/2015 6:20:50 AM,
84,0,408,4470.25641025641,4109.74358974359,3991.28205128205,4378.46153846154,4534.8717948718,4381.02564102564,4312.82051282051,4369.23076923077,4651.28205128205,4100,4315.38461538462,4196.92307692308,4014.35897435898,4178.46153846154,1664,1692,34.603,34.5609512329102,0,0,0,0,2/8/2015 6:20:50 AM,
85,0,437,4487.69230769231,4123.58974358974,4011.28205128205,4387.69230769231,4557.94871794872,4392.30769230769,4312.82051282051,4374.8717948718,4648.71794871795,4107.17948717949,4326.66666666667,4207.69230769231,4020.51282051282,4196.41025641026,1664,1693,34.611,34.5609512329102,0,0,0,0,2/8/2015 6:20:50 AM,
86,0,423,4521.02564102564,4127.69230769231,4005.64102564103,4395.89743589744,4562.05128205128,4403.58974358974,4312.82051282051,4380,4650.25641025641,4106.66666666667,4338.97435897436,4195.89743589744,4022.05128205128,4240,1663,1693,34.619,34.5609512329102,0,0,0,0,2/8/2015 6:20:50 AM,
87,0,455,4516.41025641026,4120.51282051282,3985.64102564103,4379.48717948718,4549.23076923077,4394.35897435897,4312.82051282051,4383.58974358974,4655.38461538462,4108.20512820513,4329.23076923077,4186.15384615385,4019.48717948718,4236.92307692308,1664,1695,34.627,34.5609512329102,0,0,0,0,2/8/2015 6:20:50 AM,
88,0,408,4490.25641025641,4121.53846153846,3991.79487179487,4376.92307692308,4541.53846153846,4390.25641025641,4312.30769230769,4381.02564102564,4655.38461538462,4121.53846153846,4317.94871794872,4190.76923076923,4020.51282051282,4213.33333333333,1664,1694,34.635,34.5609512329102,0,0,0,0,2/8/2015 6:20:50 AM,
89,0,437,4488.20512820513,4125.12820512821,4008.20512820513,4389.74358974359,4538.46153846154,4403.58974358974,4312.30769230769,4373.84615384615,4656.41025641026,4125.12820512821,4314.8717948718,4202.05128205128,4018.46153846154,4199.48717948718,1663,1694,34.643,34.5609512329102,0,0,0,0,2/8/2015 6:20:50 AM,
90,0,423,4504.10256410256,4118.97435897436,4003.07692307692,4385.12820512821,4541.53846153846,4409.74358974359,4312.82051282051,4377.94871794872,4661.53846153846,4111.28205128205,4323.58974358974,4204.61538461538,4020.51282051282,4212.30769230769,1663,1693,34.651,34.5609512329102,0,0,0,0,2/8/2015 6:20:50 AM,
91,0,455,4503.07692307692,4116.92307692308,3988.71794871795,4378.46153846154,4551.28205128205,4401.53846153846,4312.30769230769,4384.10256410256,4654.8717948718,4104.10256410256,4333.33333333333,4186.15384615385,4023.07692307692,4245.12820512821,1663,1693,34.658,34.5609512329102,0,0,0,0,2/8/2015 6:20:50 AM,
92,0,408,4491.28205128205,4115.38461538462,3988.71794871795,4382.05128205128,4553.33333333333,4395.89743589744,4312.82051282051,4375.89743589744,4640.51282051282,4107.69230769231,4327.17948717949,4179.48717948718,4010.25641025641,4226.15384615385,1663,1692,34.666,34.5609512329102,0,0,0,0,2/8/2015 6:20:50 AM,
93,0,437,4487.69230769231,4108.20512820513,3995.38461538462,4380.51282051282,4552.82051282051,4397.94871794872,4317.4358974359,4372.30769230769,4641.02564102564,4117.4358974359,4320,4193.84615384615,4004.61538461539,4182.05128205128,1664,1693,34.673,34.5609512329102,0,0,0,0,2/8/2015 6:20:50 AM,
94,0,423,4490.25641025641,4111.28205128205,4001.02564102564,4385.12820512821,4552.30769230769,4397.94871794872,4321.02564102564,4383.07692307692,4649.74358974359,4128.20512820513,4319.48717948718,4194.35897435897,4021.02564102564,4194.35897435897,1664,1692,34.682,34.5609512329102,0,0,0,0,2/8/2015 6:20:50 AM,
95,0,455,4491.28205128205,4116.41025641026,4005.64102564103,4395.89743589744,4546.66666666667,4395.38461538462,4322.5641025641,4383.58974358974,4643.07692307692,4123.07692307692,4318.46153846154,4185.12820512821,4023.07692307692,4222.5641025641,1664,1693,34.69,34.5609512329102,0,0,0,0,2/8/2015 6:20:50 AM,
96,0,408,4494.8717948718,4112.82051282051,4003.58974358974,4394.8717948718,4538.46153846154,4397.4358974359,4321.02564102564,4375.89743589744,4635.38461538462,4108.71794871795,4320.51282051282,4193.33333333333,4008.20512820513,4205.12820512821,1665,1693,34.697,34.5609512329102,0,0,0,0,2/8/2015 6:20:50 AM,
97,0,437,4493.84615384615,4114.35897435897,4001.02564102564,4391.28205128205,4536.92307692308,4398.46153846154,4315.38461538462,4387.17948717949,4646.66666666667,4104.10256410256,4326.66666666667,4203.58974358974,4008.71794871795,4189.23076923077,1665,1693,34.705,34.5609512329102,0,0,0,0,2/8/2015 6:20:50 AM,
98,0,423,4476.92307692308,4118.46153846154,4003.58974358974,4389.23076923077,4543.07692307692,4394.8717948718,4311.28205128205,4396.92307692308,4644.61538461538,4109.23076923077,4328.20512820513,4199.48717948718,4013.84615384615,4206.15384615385,1664,1694,34.712,34.5609512329102,0,0,0,0,2/8/2015 6:20:50 AM,
99,0,455,4480,4116.92307692308,4005.64102564103,4386.15384615385,4556.41025641026,4404.10256410256,4309.23076923077,4386.66666666667,4630.76923076923,4125.12820512821,4326.66666666667,4201.02564102564,4014.35897435898,4214.35897435897,1665,1694,34.72,34.5609512329102,0,0,0,0,2/8/2015 6:20:50 AM,
100,0,408,4507.69230769231,4116.92307692308,4008.20512820513,4387.17948717949,4575.38461538462,4425.64102564103,4306.66666666667,4380.51282051282,4640.51282051282,4138.97435897436,4330.25641025641,4204.61538461538,4023.58974358974,4220,1666,1692,34.728,34.5609512329102,0,0,0,0,2/8/2015 6:20:50 AM,
101,0,437,4512.82051282051,4115.89743589744,4004.10256410256,4388.20512820513,4575.89743589744,4427.69230769231,4307.69230769231,4386.15384615385,4652.30769230769,4130.76923076923,4331.28205128205,4200.51282051282,4026.66666666667,4222.05128205128,1664,1693,34.737,34.5609512329102,0,0,0,0,2/8/2015 6:20:50 AM,
102,0,423,4493.33333333333,4109.23076923077,3994.35897435898,4384.61538461538,4555.89743589744,4411.28205128205,4313.33333333333,4386.15384615385,4643.58974358974,4120,4320,4201.02564102564,4015.38461538462,4191.28205128205,1666,1692,34.744,34.5609512329102,0,0,0,0,2/8/2015 6:20:50 AM,
103,0,455,4485.64102564103,4110.76923076923,3993.84615384615,4389.23076923077,4552.82051282051,4405.64102564103,4314.35897435897,4379.48717948718,4641.02564102564,4118.97435897436,4312.82051282051,4200,4010.76923076923,4172.30769230769,1664,1692,34.752,34.5609512329102,0,0,0,0,2/8/2015 6:20:50 AM,
104,0,408,4499.48717948718,4125.64102564103,4004.10256410256,4401.53846153846,4569.23076923077,4410.25641025641,4310.76923076923,4385.12820512821,4648.71794871795,4115.38461538462,4328.20512820513,4201.02564102564,4018.97435897436,4192.82051282051,1664,1693,34.76,34.5609512329102,0,0,0,0,2/8/2015 6:20:50 AM,
105,0,437,4505.64102564103,4133.84615384615,4010.25641025641,4400,4573.33333333333,4414.8717948718,4310.25641025641,4396.41025641026,4650.25641025641,4114.35897435897,4337.4358974359,4209.74358974359,4023.58974358974,4210.25641025641,1664,1692,34.767,34.5609512329102,0,0,0,0,2/8/2015 6:20:50 AM,
106,0,423,4494.8717948718,4129.23076923077,4008.71794871795,4394.8717948718,4568.20512820513,4423.07692307692,4312.30769230769,4401.53846153846,4653.84615384615,4124.10256410256,4327.17948717949,4208.71794871795,4016.41025641026,4187.17948717949,1665,1694,34.775,34.5609512329102,0,0,0,0,2/8/2015 6:20:50 AM,
107,0,455,4483.58974358974,4127.17948717949,4007.17948717949,4398.46153846154,4567.17948717949,4429.23076923077,4313.33333333333,4402.5641025641,4662.5641025641,4129.23076923077,4324.61538461538,4201.02564102564,4005.64102564103,4163.58974358974,1665,1695,34.783,34.5609512329102,0,0,0,0,2/8/2015 6:20:50 AM,
108,0,408,4487.69230769231,4127.69230769231,4005.12820512821,4400,4561.02564102564,4428.71794871795,4312.82051282051,4401.02564102564,4660,4127.17948717949,4325.64102564103,4201.02564102564,4006.66666666667,4185.12820512821,1664,1695,34.79,34.5609512329102,0,0,0,0,2/8/2015 6:20:50 AM,
109,0,437,4492.82051282051,4114.8717948718,4006.15384615385,4396.41025641026,4555.38461538462,4429.23076923077,4311.79487179487,4397.94871794872,4649.23076923077,4118.97435897436,4323.58974358974,4201.53846153846,4013.84615384615,4205.64102564103,1665,1695,34.798,34.5609512329102,0,0,0,0,2/8/2015 6:20:50 AM,
110,0,423,4493.33333333333,4113.33333333333,4009.23076923077,4396.41025641026,4564.61538461538,4428.71794871795,4311.28205128205,4395.89743589744,4643.58974358974,4107.17948717949,4326.66666666667,4204.10256410256,4010.25641025641,4175.38461538462,1664,1696,34.806,34.5609512329102,0,0,0,0,2/8/2015 6:20:50 AM,
111,0,455,4504.10256410256,4137.4358974359,4011.79487179487,4399.48717948718,4576.41025641026,4426.15384615385,4313.33333333333,4396.92307692308,4648.20512820513,4110.25641025641,4315.38461538462,4213.33333333333,4001.02564102564,4140,1664,1694,34.814,34.5609512329102,0,0,0,0,2/8/2015 6:20:50 AM,
112,0,408,4510.76923076923,4142.5641025641,4014.35897435898,4401.02564102564,4570.76923076923,4426.66666666667,4317.94871794872,4396.92307692308,4656.41025641026,4121.53846153846,4306.15384615385,4214.8717948718,4001.53846153846,4175.89743589744,1662,1695,34.822,34.5609512329102,0,0,0,0,2/8/2015 6:20:50 AM,
113,0,437,4504.61538461538,4124.61538461538,4009.23076923077,4402.05128205128,4561.02564102564,4430.76923076923,4320,4395.89743589744,4651.28205128205,4122.05128205128,4328.20512820513,4204.61538461538,4010.76923076923,4248.20512820513,1664,1694,34.829,34.5609512329102,0,0,0,0,2/8/2015 6:20:50 AM,
114,0,423,4502.5641025641,4118.97435897436,4002.05128205128,4399.48717948718,4569.23076923077,4431.28205128205,4318.97435897436,4395.38461538462,4646.15384615385,4117.94871794872,4343.07692307692,4191.28205128205,4018.46153846154,4269.74358974359,1662,1693,34.837,34.5609512329102,0,0,0,0,2/8/2015 6:20:51 AM,
115,0,455,4506.15384615385,4120,4001.02564102564,4396.41025641026,4582.05128205128,4429.74358974359,4318.97435897436,4394.8717948718,4654.8717948718,4118.46153846154,4333.84615384615,4187.17948717949,4017.94871794872,4235.38461538462,1663,1693,34.845,34.5609512329102,0,0,0,0,2/8/2015 6:20:51 AM,
116,0,408,4505.12820512821,4124.10256410256,4004.61538461539,4395.89743589744,4572.82051282051,4427.17948717949,4318.97435897436,4395.89743589744,4660.51282051282,4120.51282051282,4329.74358974359,4202.05128205128,4018.46153846154,4190.25641025641,1664,1692,34.853,34.5609512329102,0,0,0,0,2/8/2015 6:20:51 AM,
117,0,437,4495.38461538462,4136.92307692308,4013.84615384615,4398.97435897436,4553.33333333333,4429.74358974359,4317.94871794872,4397.4358974359,4655.38461538462,4123.07692307692,4328.20512820513,4220.51282051282,4025.12820512821,4172.30769230769,1663,1694,34.862,34.5609512329102,0,0,0,0,2/8/2015 6:20:51 AM,
118,0,423,4489.23076923077,4136.92307692308,4020,4403.58974358974,4553.33333333333,4434.35897435897,4317.94871794872,4393.84615384615,4651.79487179487,4125.12820512821,4322.05128205128,4218.46153846154,4020,4200.51282051282,1663,1693,34.87,34.5609512329102,0,0,0,0,2/8/2015 6:20:51 AM,
119,0,455,4498.97435897436,4125.64102564103,4012.30769230769,4403.07692307692,4561.53846153846,4430.76923076923,4317.94871794872,4383.58974358974,4651.79487179487,4124.10256410256,4325.12820512821,4205.12820512821,4012.30769230769,4248.20512820513,1664,1694,34.877,34.5609512329102,0,0,0,0,2/8/2015 6:20:51 AM,
120,0,408,4513.84615384615,4132.82051282051,4000.51282051282,4397.94871794872,4552.30769230769,4420.51282051282,4317.94871794872,4378.46153846154,4646.66666666667,4121.53846153846,4331.28205128205,4200,4024.10256410256,4245.12820512821,1664,1693,34.885,34.5609512329102,0,0,0,0,2/8/2015 6:20:51 AM,
121,0,437,4510.76923076923,4142.05128205128,4001.02564102564,4400,4542.05128205128,4414.8717948718,4317.94871794872,4380,4647.17948717949,4121.53846153846,4333.84615384615,4203.58974358974,4027.69230769231,4194.35897435897,1664,1693,34.892,34.5609512329102,0,0,0,0,2/8/2015 6:20:51 AM,
122,0,423,4488.71794871795,4128.20512820513,4004.61538461539,4399.48717948718,4551.28205128205,4414.35897435897,4317.94871794872,4374.35897435897,4649.74358974359,4121.53846153846,4329.23076923077,4204.10256410256,4014.8717948718,4178.46153846154,1664,1693,34.9,34.5609512329102,0,0,0,0,2/8/2015 6:20:51 AM,
123,0,455,4474.8717948718,4119.48717948718,3998.97435897436,4389.23076923077,4558.97435897436,4410.76923076923,4317.94871794872,4363.58974358974,4643.58974358974,4111.28205128205,4315.38461538462,4200.51282051282,4009.23076923077,4191.28205128205,1663,1693,34.908,34.5609512329102,0,0,0,0,2/8/2015 6:20:51 AM,
124,0,408,4482.5641025641,4121.02564102564,3992.82051282051,4380,4557.4358974359,4411.28205128205,4317.94871794872,4364.61538461538,4642.5641025641,4102.05128205128,4314.35897435897,4200,4009.23076923077,4182.05128205128,1664,1693,34.915,34.5609512329102,0,0,0,0,2/8/2015 6:20:51 AM,
125,0,437,4489.74358974359,4109.74358974359,3993.84615384615,4379.48717948718,4554.35897435897,4413.33333333333,4317.94871794872,4375.38461538462,4652.30769230769,4111.79487179487,4319.48717948718,4202.05128205128,4004.61538461539,4170.25641025641,1663,1692,34.924,34.5609512329102,0,0,0,0,2/8/2015 6:20:51 AM,
126,0,423,4487.69230769231,4106.66666666667,4001.02564102564,4394.35897435897,4547.17948717949,4415.89743589744,4317.94871794872,4382.05128205128,4658.97435897436,4126.66666666667,4313.84615384615,4206.15384615385,4005.64102564103,4191.28205128205,1663,1694,34.932,34.5609512329102,0,0,0,0,2/8/2015 6:20:51 AM,
127,0,455,4490.25641025641,4122.5641025641,4005.12820512821,4405.64102564103,4541.02564102564,4422.5641025641,4317.94871794872,4383.07692307692,4655.89743589744,4122.5641025641,4314.8717948718,4210.76923076923,4006.66666666667,4208.20512820513,1663,1693,34.94,34.5609512329102,0,0,0,0,2/8/2015 6:20:51 AM,
128,0,408,4493.84615384615,4129.74358974359,4005.12820512821,4395.89743589744,4534.35897435897,4429.74358974359,4317.94871794872,4382.5641025641,4650.76923076923,4108.71794871795,4328.20512820513,4216.41025641026,4002.05128205128,4184.10256410256,1663,1694,34.947,34.5609512329102,0,0,0,0,2/8/2015 6:20:51 AM,
0,0,449,4491.28205128205,4123.58974358974,4010.25641025641,4386.66666666667,4537.94871794872,4430.76923076923,4317.94871794872,4376.92307692308,4648.20512820513,4108.71794871795,4332.30769230769,4215.89743589744,4005.64102564103,4172.82051282051,1663,1694,34.955,34.5609512329102,0,0,0,0,2/8/2015 6:20:51 AM,
1,0,441,4490.25641025641,4124.10256410256,4006.15384615385,4395.89743589744,4565.12820512821,4422.5641025641,4317.94871794872,4366.15384615385,4647.17948717949,4118.46153846154,4321.53846153846,4205.64102564103,4010.76923076923,4197.4358974359,1663,1694,34.962,34.5609512329102,0,0,0,0,2/8/2015 6:20:51 AM,
2,0,468,4490.25641025641,4123.58974358974,3996.92307692308,4395.89743589744,4583.07692307692,4413.84615384615,4317.94871794872,4362.5641025641,4648.20512820513,4122.05128205128,4310.25641025641,4207.17948717949,4007.17948717949,4197.94871794872,1664,1693,34.971,34.5609512329102,0,0,0,0,2/8/2015 6:20:51 AM,
3,0,491,4482.05128205128,4107.69230769231,3999.48717948718,4381.53846153846,4562.05128205128,4412.82051282051,4317.94871794872,4364.10256410256,4649.23076923077,4120.51282051282,4309.23076923077,4217.4358974359,4002.5641025641,4182.05128205128,1663,1692,34.98,34.5609512329102,0,0,0,0,2/8/2015 6:20:51 AM,
4,0,475,4473.84615384615,4104.10256410256,4001.02564102564,4383.58974358974,4537.94871794872,4415.38461538462,4317.94871794872,4367.69230769231,4649.23076923077,4115.89743589744,4311.79487179487,4210.25641025641,4005.12820512821,4194.35897435897,1664,1691,34.988,34.5609512329102,0,0,0,0,2/8/2015 6:20:51 AM,
5,0,463,4472.82051282051,4118.46153846154,3988.71794871795,4394.35897435897,4539.48717948718,4413.84615384615,4318.46153846154,4371.79487179487,4648.71794871795,4108.71794871795,4311.28205128205,4193.84615384615,4006.15384615385,4203.58974358974,1663,1691,34.996,34.5609512329102,0,0,0,0,2/8/2015 6:20:51 AM,
6,0,480,4475.38461538462,4114.35897435897,3987.69230769231,4384.61538461538,4549.74358974359,4407.69230769231,4318.97435897436,4372.82051282051,4646.66666666667,4105.64102564103,4312.82051282051,4198.97435897436,3996.41025641026,4176.41025641026,1664,1690,35.003,34.5609512329102,0,0,0,0,2/8/2015 6:20:51 AM,
7,0,0,4471.28205128205,4104.10256410256,4003.07692307692,4381.02564102564,4553.33333333333,4403.07692307692,4318.97435897436,4373.84615384615,4650.25641025641,4108.20512820513,4316.41025641026,4212.82051282051,3985.64102564103,4148.71794871795,1663,1691,35.01,34.5609512329102,0,0,0,0,2/8/2015 6:20:51 AM,
8,0,410,4480.51282051282,4117.4358974359,4010.25641025641,4395.89743589744,4545.64102564103,4405.64102564103,4319.48717948718,4380,4655.89743589744,4107.69230769231,4312.82051282051,4217.4358974359,3985.12820512821,4167.17948717949,1664,1692,35.018,34.5609512329102,0,0,0,0,2/8/2015 6:20:51 AM,
9,0,426,4506.66666666667,4124.10256410256,4012.30769230769,4396.92307692308,4535.38461538462,4409.74358974359,4320,4383.58974358974,4653.84615384615,4106.15384615385,4302.05128205128,4219.48717948718,3987.69230769231,4210.76923076923,1665,1690,35.026,34.5609512329102,0,0,0,0,2/8/2015 6:20:51 AM,
10,0,423,4515.89743589744,4115.89743589744,4010.25641025641,4387.69230769231,4543.58974358974,4409.74358974359,4319.48717948718,4381.53846153846,4642.5641025641,4103.58974358974,4301.53846153846,4216.92307692308,3992.82051282051,4239.48717948718,1663,1693,35.034,34.5609512329102,0,0,0,0,2/8/2015 6:20:51 AM,
11,0,455,4501.53846153846,4117.94871794872,4004.61538461539,4393.33333333333,4563.07692307692,4415.38461538462,4319.48717948718,4382.05128205128,4639.48717948718,4106.15384615385,4322.5641025641,4208.20512820513,4008.20512820513,4249.23076923077,1665,1692,35.042,34.5609512329102,0,0,0,0,2/8/2015 6:20:51 AM,
12,0,408,4488.71794871795,4118.97435897436,4007.69230769231,4399.48717948718,4562.05128205128,4420,4320,4384.10256410256,4650.76923076923,4118.46153846154,4339.48717948718,4207.17948717949,4015.89743589744,4240,1664,1693,35.049,34.5609512329102,0,0,0,0,2/8/2015 6:20:51 AM,
13,0,437,4488.71794871795,4113.33333333333,4009.23076923077,4394.8717948718,4558.97435897436,4412.30769230769,4320,4383.07692307692,4659.48717948718,4124.61538461538,4331.79487179487,4213.84615384615,4007.69230769231,4207.17948717949,1665,1694,35.057,35.0301055908203,0,0,0,0,2/8/2015 6:20:51 AM,
14,0,423,4493.84615384615,4120.51282051282,3999.48717948718,4398.97435897436,4572.30769230769,4413.84615384615,4320,4384.61538461538,4655.89743589744,4118.97435897436,4321.02564102564,4211.79487179487,4003.07692307692,4186.66666666667,1665,1694,35.065,35.0301055908203,0,0,0,0,2/8/2015 6:20:51 AM,
15,0,455,4490.76923076923,4125.64102564103,3992.82051282051,4397.94871794872,4564.10256410256,4426.15384615385,4320,4391.79487179487,4654.35897435897,4118.46153846154,4323.58974358974,4206.15384615385,4007.17948717949,4205.64102564103,1665,1693,35.073,35.0301055908203,0,0,0,0,2/8/2015 6:20:51 AM,
16,0,0,4484.61538461538,4121.53846153846,4004.61538461539,4388.20512820513,4544.61538461538,4424.10256410256,4320,4397.94871794872,4660,4122.05128205128,4327.17948717949,4211.28205128205,4009.23076923077,4224.61538461538,1664,1693,35.081,35.0301055908203,0,0,0,0,2/8/2015 6:20:51 AM,
17,0,0,4493.84615384615,4117.4358974359,4016.41025641026,4390.76923076923,4559.48717948718,4415.38461538462,4319.48717948718,4398.46153846154,4655.89743589744,4119.48717948718,4320,4216.92307692308,4004.61538461539,4221.02564102564,1664,1693,35.089,35.0613822937012,0,0,0,0,2/8/2015 6:20:51 AM,
18,0,0,4511.79487179487,4117.94871794872,4012.82051282051,4398.97435897436,4579.48717948718,4413.33333333333,4317.94871794872,4396.92307692308,4646.66666666667,4120,4308.71794871795,4215.89743589744,4001.02564102564,4215.38461538462,1665,1692,35.096,35.0613822937012,0,0,0,0,2/8/2015 6:20:51 AM,
19,0,0,4512.82051282051,4131.79487179487,4002.5641025641,4398.97435897436,4571.28205128205,4412.82051282051,4317.94871794872,4403.07692307692,4653.33333333333,4124.10256410256,4314.35897435897,4207.17948717949,4008.71794871795,4229.74358974359,1664,1691,35.105,35.0613822937012,0,0,0,0,2/8/2015 6:20:51 AM,
20,0,0,4506.15384615385,4141.53846153846,3998.97435897436,4397.94871794872,4554.8717948718,4412.30769230769,4318.97435897436,4410.76923076923,4660,4124.61538461538,4329.23076923077,4199.48717948718,4015.38461538462,4243.07692307692,1664,1692,35.113,35.0613822937012,0,0,0,0,2/8/2015 6:20:51 AM,
21,0,0,4503.07692307692,4130.76923076923,4007.69230769231,4404.61538461538,4540,4418.46153846154,4316.41025641026,4404.61538461538,4650.25641025641,4124.10256410256,4328.20512820513,4208.71794871795,4012.30769230769,4211.28205128205,1664,1692,35.121,35.0613822937012,0,0,0,0,2/8/2015 6:20:51 AM,
22,0,0,4491.79487179487,4128.20512820513,4016.41025641026,4406.15384615385,4538.97435897436,4427.17948717949,4310.25641025641,4392.82051282051,4641.02564102564,4123.07692307692,4321.53846153846,4221.53846153846,4016.92307692308,4184.61538461538,1664,1693,35.128,35.0613822937012,0,0,0,0,2/8/2015 6:20:51 AM,
23,0,0,4486.15384615385,4136.41025641026,4023.07692307692,4400,4548.71794871795,4428.20512820513,4307.17948717949,4393.33333333333,4644.61538461538,4123.07692307692,4324.61538461538,4220.51282051282,4022.05128205128,4192.82051282051,1665,1693,35.135,35.0613822937012,0,0,0,0,2/8/2015 6:20:51 AM,
24,0,0,4497.94871794872,4131.28205128205,4022.05128205128,4396.92307692308,4560.51282051282,4417.4358974359,4307.69230769231,4401.02564102564,4651.28205128205,4124.61538461538,4324.10256410256,4214.8717948718,4007.69230769231,4197.4358974359,1663,1693,35.143,35.0613822937012,0,0,0,0,2/8/2015 6:20:51 AM,
25,0,0,4509.74358974359,4127.17948717949,4009.23076923077,4396.92307692308,4574.8717948718,4409.74358974359,4307.69230769231,4396.41025641026,4645.64102564103,4123.07692307692,4321.53846153846,4215.89743589744,4002.05128205128,4208.71794871795,1664,1693,35.151,35.0613822937012,0,0,0,0,2/8/2015 6:20:51 AM,
26,0,0,4517.4358974359,4137.4358974359,3999.48717948718,4397.4358974359,4571.28205128205,4419.48717948718,4307.17948717949,4387.17948717949,4633.33333333333,4121.53846153846,4327.17948717949,4217.4358974359,4018.46153846154,4222.5641025641,1664,1693,35.159,35.0613822937012,0,0,0,0,2/8/2015 6:20:51 AM,
27,0,0,4516.92307692308,4134.8717948718,4006.15384615385,4395.38461538462,4541.02564102564,4429.74358974359,4307.69230769231,4390.25641025641,4635.89743589744,4123.58974358974,4330.25641025641,4217.94871794872,4024.61538461539,4209.23076923077,1664,1693,35.167,35.0613822937012,0,0,0,0,2/8/2015 6:20:51 AM,
28,0,0,4504.10256410256,4122.5641025641,4013.84615384615,4393.33333333333,4532.30769230769,4429.23076923077,4308.20512820513,4397.94871794872,4647.17948717949,4123.07692307692,4323.58974358974,4218.97435897436,4013.84615384615,4220,1665,1692,35.175,35.0613822937012,0,0,0,0,2/8/2015 6:20:51 AM,
29,0,0,4502.5641025641,4122.5641025641,4008.71794871795,4390.25641025641,4554.8717948718,4426.15384615385,4307.17948717949,4399.48717948718,4644.61538461538,4118.97435897436,4325.12820512821,4217.94871794872,4007.69230769231,4256.41025641026,1664,1694,35.182,35.1552124023438,0,0,0,0,2/8/2015 6:20:51 AM,
30,0,0,4507.69230769231,4117.4358974359,4001.02564102564,4387.69230769231,4563.58974358974,4420,4307.17948717949,4398.46153846154,4638.46153846154,4118.97435897436,4328.20512820513,4217.4358974359,4003.58974358974,4213.84615384615,1665,1693,35.19,35.1552124023438,0,0,0,0,2/8/2015 6:20:51 AM,
31,0,0,4495.89743589744,4110.76923076923,3997.4358974359,4389.23076923077,4548.71794871795,4412.82051282051,4310.76923076923,4397.4358974359,4640.51282051282,4122.05128205128,4314.35897435897,4214.35897435897,4003.07692307692,4166.66666666667,1664,1693,35.198,35.1552124023438,0,0,0,0,2/8/2015 6:20:51 AM,
32,0,0,4486.15384615385,4117.94871794872,3991.28205128205,4389.74358974359,4542.5641025641,4414.35897435897,4312.30769230769,4390.76923076923,4642.05128205128,4119.48717948718,4309.23076923077,4202.5641025641,4011.79487179487,4207.17948717949,1664,1693,35.206,35.1552124023438,0,0,0,0,2/8/2015 6:20:51 AM,
33,0,0,4493.33333333333,4124.10256410256,3987.69230769231,4384.10256410256,4542.05128205128,4419.48717948718,4312.30769230769,4384.61538461538,4643.58974358974,4113.33333333333,4318.97435897436,4202.5641025641,4005.64102564103,4234.35897435897,1664,1692,35.214,35.1552124023438,0,0,0,0,2/8/2015 6:20:51 AM,
34,0,0,4492.30769230769,4118.97435897436,3998.46153846154,4378.46153846154,4530.76923076923,4420.51282051282,4316.41025641026,4380,4642.5641025641,4109.74358974359,4320.51282051282,4217.4358974359,3991.28205128205,4217.4358974359,1664,1691,35.221,35.1552124023438,0,0,0,0,2/8/2015 6:20:51 AM,
35,0,0,4487.69230769231,4118.97435897436,4005.12820512821,4385.12820512821,4534.35897435897,4425.64102564103,4319.48717948718,4384.61538461538,4637.4358974359,4112.82051282051,4326.15384615385,4220.51282051282,4004.61538461539,4221.02564102564,1664,1691,35.229,35.1552124023438,0,0,0,0,2/8/2015 6:20:51 AM,
