COUNTER,INTERPOLATED,RAW_CQ,AF3,F7,F3, FC5, T7, P7, O1, O2,P8, T8, FC6, F4,F8, AF4,GYROX, GYROY, TIMESTAMP, ES_TIMESTAMPFUNC_ID, FUNC_VALUE, MARKER, SYNC_SIGNAL,DateTime
45,0,0,4528.71794871795,4058.46153846154,3992.82051282051,4316.41025641026,4560.51282051282,4412.30769230769,4302.05128205128,4448.71794871795,4577.4358974359,4139.48717948718,4278.97435897436,4175.89743589744,3991.79487179487,4266.15384615385,1662,1694,51.72,51.6928596496582,0,0,0,0,2/8/2015 6:19:36 AM,
46,0,0,4508.20512820513,4058.46153846154,3992.82051282051,4307.17948717949,4540,4415.89743589744,4328.20512820513,4463.58974358974,4597.94871794872,4147.17948717949,4281.02564102564,4181.53846153846,3986.15384615385,4225.64102564103,1662,1692,51.728,51.6928596496582,0,0,0,0,2/8/2015 6:19:36 AM,
47,0,0,4501.02564102564,4051.28205128205,3989.23076923077,4297.94871794872,4547.69230769231,4401.53846153846,4292.30769230769,4448.20512820513,4592.30769230769,4147.69230769231,4286.66666666667,4184.10256410256,3988.71794871795,4214.35897435897,1662,1692,51.735,51.6928596496582,0,0,0,0,2/8/2015 6:19:36 AM,
48,0,0,4541.02564102564,4078.46153846154,4016.92307692308,4324.61538461538,4582.05128205128,4395.89743589744,4204.10256410256,4423.07692307692,4564.61538461538,4153.33333333333,4293.33333333333,4199.48717948718,4009.23076923077,4246.66666666667,1663,1692,51.743,51.6928596496582,0,0,0,0,2/8/2015 6:19:36 AM,
49,0,0,4554.35897435897,4084.61538461539,4034.35897435898,4323.58974358974,4556.92307692308,4398.46153846154,4229.74358974359,4429.74358974359,4581.53846153846,4162.5641025641,4278.46153846154,4211.79487179487,4003.07692307692,4226.66666666667,1662,1693,51.75,51.6928596496582,0,0,0,0,2/8/2015 6:19:36 AM,
50,0,0,4514.35897435897,4047.69230769231,4009.23076923077,4295.89743589744,4531.28205128205,4395.38461538462,4325.64102564103,4443.07692307692,4609.23076923077,4147.69230769231,4273.84615384615,4194.8717948718,3985.12820512821,4225.12820512821,1663,1693,51.758,51.6928596496582,0,0,0,0,2/8/2015 6:19:36 AM,
51,0,0,4501.53846153846,4041.02564102564,3986.66666666667,4305.64102564103,4570.25641025641,4403.07692307692,4332.82051282051,4434.35897435897,4594.8717948718,4126.66666666667,4288.20512820513,4177.4358974359,3994.35897435898,4265.64102564103,1663,1693,51.767,51.6928596496582,0,0,0,0,2/8/2015 6:19:36 AM,
52,0,0,4512.30769230769,4066.15384615385,3984.61538461539,4317.4358974359,4576.92307692308,4423.07692307692,4304.61538461538,4433.33333333333,4587.69230769231,4131.79487179487,4288.71794871795,4185.12820512821,3992.30769230769,4247.69230769231,1664,1693,51.774,51.6928596496582,0,0,0,0,2/8/2015 6:19:36 AM,
53,0,0,4489.74358974359,4054.35897435898,3989.74358974359,4291.79487179487,4531.79487179487,4422.5641025641,4320.51282051282,4442.05128205128,4594.35897435897,4138.97435897436,4276.92307692308,4187.17948717949,3970.76923076923,4223.58974358974,1663,1692,51.781,51.6928596496582,0,0,0,0,2/8/2015 6:19:36 AM,
54,0,0,4471.79487179487,4028.20512820513,3996.41025641026,4284.61538461538,4527.17948717949,4402.5641025641,4325.64102564103,4442.5641025641,4591.28205128205,4133.84615384615,4270.76923076923,4176.41025641026,3968.71794871795,4227.17948717949,1663,1694,51.79,51.6928596496582,0,0,0,0,2/8/2015 6:19:36 AM,
55,0,0,4501.53846153846,4041.02564102564,3990.25641025641,4300,4550.76923076923,4401.53846153846,4316.92307692308,4449.74358974359,4606.15384615385,4134.8717948718,4279.48717948718,4177.4358974359,3981.02564102564,4195.38461538462,1664,1692,51.798,51.6928596496582,0,0,0,0,2/8/2015 6:19:36 AM,
56,0,0,4521.02564102564,4056.41025641026,3977.4358974359,4300,4547.69230769231,4412.82051282051,4319.48717948718,4462.5641025641,4617.94871794872,4138.46153846154,4285.12820512821,4185.12820512821,3981.53846153846,4206.15384615385,1663,1693,51.806,51.6928596496582,0,0,0,0,2/8/2015 6:19:36 AM,
57,0,0,4495.89743589744,4040.51282051282,3988.71794871795,4294.8717948718,4539.48717948718,4409.74358974359,4317.94871794872,4461.53846153846,4598.46153846154,4140,4271.79487179487,4188.20512820513,3975.89743589744,4252.30769230769,1664,1693,51.814,51.6928596496582,0,0,0,0,2/8/2015 6:19:36 AM,
58,0,0,4488.20512820513,4034.35897435898,3994.35897435898,4289.23076923077,4544.10256410256,4398.97435897436,4318.46153846154,4453.33333333333,4585.12820512821,4141.02564102564,4265.64102564103,4177.94871794872,3972.82051282051,4235.89743589744,1664,1694,51.821,51.6928596496582,0,0,0,0,2/8/2015 6:19:36 AM,
59,0,0,4508.20512820513,4055.89743589744,3975.38461538462,4282.05128205128,4553.84615384615,4396.92307692308,4319.48717948718,4451.79487179487,4597.94871794872,4135.89743589744,4278.97435897436,4169.74358974359,3975.89743589744,4221.02564102564,1664,1693,51.829,51.6928596496582,0,0,0,0,2/8/2015 6:19:36 AM,
60,0,0,4512.30769230769,4062.05128205128,3982.5641025641,4282.5641025641,4544.61538461538,4411.28205128205,4319.48717948718,4458.97435897436,4617.94871794872,4134.8717948718,4286.15384615385,4180,3980,4229.74358974359,1664,1695,51.837,51.6928596496582,0,0,0,0,2/8/2015 6:19:36 AM,
61,0,0,4510.76923076923,4047.17948717949,4000.51282051282,4293.84615384615,4531.79487179487,4426.66666666667,4320,4463.07692307692,4612.82051282051,4148.71794871795,4275.38461538462,4190.76923076923,3976.92307692308,4215.89743589744,1664,1696,51.845,51.8179702758789,0,0,0,0,2/8/2015 6:19:36 AM,
62,0,0,4509.74358974359,4043.07692307692,3985.12820512821,4293.33333333333,4545.12820512821,4419.48717948718,4318.46153846154,4457.4358974359,4589.23076923077,4153.84615384615,4272.82051282051,4185.12820512821,3974.35897435898,4221.53846153846,1663,1696,51.852,51.8179702758789,0,0,0,0,2/8/2015 6:19:36 AM,
63,0,0,4502.05128205128,4051.79487179487,3975.38461538462,4289.23076923077,4567.69230769231,4410.25641025641,4317.94871794872,4455.38461538462,4595.38461538462,4142.05128205128,4277.94871794872,4174.8717948718,3978.46153846154,4254.8717948718,1663,1696,51.86,51.8179702758789,0,0,0,0,2/8/2015 6:19:36 AM,
64,0,460,4496.92307692308,4061.02564102564,3988.71794871795,4297.4358974359,4581.02564102564,4422.05128205128,4318.46153846154,4459.48717948718,4622.5641025641,4137.4358974359,4272.82051282051,4178.46153846154,3985.12820512821,4248.71794871795,1663,1695,51.868,51.8179702758789,0,0,0,0,2/8/2015 6:19:36 AM,
65,0,442,4497.94871794872,4060,3989.74358974359,4298.97435897436,4563.07692307692,4415.89743589744,4318.97435897436,4462.05128205128,4622.05128205128,4139.48717948718,4269.74358974359,4180.51282051282,3983.07692307692,4231.79487179487,1663,1694,51.875,51.8179702758789,0,0,0,0,2/8/2015 6:19:36 AM,
66,0,465,4494.8717948718,4049.23076923077,3989.23076923077,4289.74358974359,4523.07692307692,4389.74358974359,4318.97435897436,4463.07692307692,4605.64102564103,4136.41025641026,4276.41025641026,4178.97435897436,3978.46153846154,4220,1663,1693,51.883,51.8179702758789,0,0,0,0,2/8/2015 6:19:36 AM,
67,0,493,4503.07692307692,4049.23076923077,3999.48717948718,4294.8717948718,4509.74358974359,4396.92307692308,4318.97435897436,4461.53846153846,4605.12820512821,4136.92307692308,4280,4191.28205128205,3979.48717948718,4184.61538461538,1663,1691,51.891,51.8179702758789,0,0,0,0,2/8/2015 6:19:36 AM,
68,0,482,4523.07692307692,4061.53846153846,3989.74358974359,4300,4547.69230769231,4417.94871794872,4318.46153846154,4457.4358974359,4609.23076923077,4138.97435897436,4274.8717948718,4200.51282051282,3983.07692307692,4188.20512820513,1662,1692,51.899,51.8179702758789,0,0,0,0,2/8/2015 6:19:36 AM,
69,0,467,4526.66666666667,4058.46153846154,3986.15384615385,4283.07692307692,4576.92307692308,4408.20512820513,4317.94871794872,4462.5641025641,4613.84615384615,4126.66666666667,4271.28205128205,4192.30769230769,3983.58974358974,4244.61538461538,1664,1691,51.907,51.8179702758789,0,0,0,0,2/8/2015 6:19:37 AM,
70,0,482,4524.61538461538,4048.20512820513,4001.02564102564,4284.61538461538,4561.02564102564,4400.51282051282,4318.97435897436,4474.35897435897,4627.69230769231,4120,4280,4185.64102564103,3985.64102564103,4258.97435897436,1664,1692,51.915,51.8179702758789,0,0,0,0,2/8/2015 6:19:37 AM,
71,0,0,4527.17948717949,4056.41025641026,3992.30769230769,4301.53846153846,4541.53846153846,4409.74358974359,4320,4471.79487179487,4621.53846153846,4132.82051282051,4283.07692307692,4186.15384615385,3988.20512820513,4214.8717948718,1664,1693,51.923,51.8179702758789,0,0,0,0,2/8/2015 6:19:37 AM,
72,0,407,4522.05128205128,4062.05128205128,3980.51282051282,4299.48717948718,4524.61538461538,4408.71794871795,4319.48717948718,4456.92307692308,4596.92307692308,4140.51282051282,4269.74358974359,4186.66666666667,3979.48717948718,4191.28205128205,1664,1693,51.932,51.8179702758789,0,0,0,0,2/8/2015 6:19:37 AM,
73,0,427,4517.94871794872,4050.76923076923,3998.97435897436,4296.92307692308,4505.12820512821,4403.07692307692,4319.48717948718,4460.51282051282,4611.28205128205,4126.15384615385,4265.64102564103,4196.92307692308,3969.23076923077,4209.23076923077,1664,1694,51.939,51.8179702758789,0,0,0,0,2/8/2015 6:19:37 AM,
74,0,429,4526.15384615385,4050.76923076923,4007.17948717949,4302.5641025641,4522.5641025641,4404.10256410256,4320,4473.84615384615,4636.92307692308,4114.8717948718,4278.97435897436,4200,3975.38461538462,4223.07692307692,1665,1693,51.946,51.8179702758789,0,0,0,0,2/8/2015 6:19:37 AM,
75,0,460,4537.94871794872,4061.02564102564,3987.69230769231,4298.97435897436,4568.20512820513,4409.74358974359,4319.48717948718,4466.15384615385,4618.97435897436,4129.74358974359,4284.61538461538,4180,3986.15384615385,4222.05128205128,1664,1694,51.954,51.8179702758789,0,0,0,0,2/8/2015 6:19:37 AM,
76,0,409,4551.28205128205,4062.5641025641,3985.64102564103,4292.82051282051,4568.71794871795,4424.61538461538,4320,4456.41025641026,4621.02564102564,4149.74358974359,4277.4358974359,4182.05128205128,3982.05128205128,4208.71794871795,1664,1693,51.962,51.8179702758789,0,0,0,0,2/8/2015 6:19:37 AM,
77,0,438,4548.20512820513,4062.05128205128,4007.17948717949,4298.46153846154,4538.97435897436,4440.51282051282,4319.48717948718,4460.51282051282,4648.20512820513,4155.38461538462,4277.4358974359,4203.07692307692,3978.97435897436,4208.20512820513,1664,1693,51.971,51.9430770874023,0,0,0,0,2/8/2015 6:19:37 AM,
78,0,429,4523.07692307692,4062.05128205128,4016.41025641026,4306.15384615385,4538.97435897436,4429.23076923077,4319.48717948718,4459.48717948718,4633.33333333333,4153.33333333333,4286.66666666667,4201.02564102564,3991.79487179487,4229.74358974359,1664,1692,51.979,51.9430770874023,0,0,0,0,2/8/2015 6:19:37 AM,
79,0,460,4522.5641025641,4058.97435897436,4007.17948717949,4311.79487179487,4538.46153846154,4404.10256410256,4320,4454.8717948718,4615.38461538462,4150.76923076923,4296.92307692308,4197.4358974359,3998.97435897436,4250.25641025641,1663,1693,51.986,51.9430770874023,0,0,0,0,2/8/2015 6:19:37 AM,
80,0,409,4546.66666666667,4058.97435897436,3993.84615384615,4304.61538461538,4532.82051282051,4406.15384615385,4319.48717948718,4457.94871794872,4638.46153846154,4150.25641025641,4295.38461538462,4197.94871794872,3993.84615384615,4257.4358974359,1664,1692,51.993,51.9430770874023,0,0,0,0,2/8/2015 6:19:37 AM,
81,0,438,4547.17948717949,4070.25641025641,3987.17948717949,4296.92307692308,4549.74358974359,4421.02564102564,4319.48717948718,4462.5641025641,4652.82051282051,4152.82051282051,4275.89743589744,4192.82051282051,3986.66666666667,4227.17948717949,1663,1692,52.001,51.9430770874023,0,0,0,0,2/8/2015 6:19:37 AM,
82,0,429,4521.53846153846,4073.33333333333,3988.20512820513,4304.10256410256,4555.38461538462,4416.41025641026,4319.48717948718,4461.02564102564,4635.38461538462,4146.66666666667,4265.64102564103,4196.92307692308,3984.10256410256,4191.28205128205,1663,1693,52.009,51.9430770874023,0,0,0,0,2/8/2015 6:19:37 AM,
83,0,460,4507.17948717949,4055.38461538462,3987.69230769231,4308.20512820513,4539.48717948718,4416.41025641026,4319.48717948718,4455.89743589744,4621.02564102564,4142.05128205128,4276.41025641026,4198.97435897436,3983.07692307692,4216.92307692308,1663,1691,52.017,51.9430770874023,0,0,0,0,2/8/2015 6:19:37 AM,
84,0,409,4514.8717948718,4052.30769230769,3992.82051282051,4301.02564102564,4534.35897435897,4441.53846153846,4320,4454.8717948718,4634.8717948718,4151.79487179487,4290.76923076923,4192.82051282051,3987.69230769231,4245.64102564103,1663,1693,52.026,51.9430770874023,0,0,0,0,2/8/2015 6:19:37 AM,
85,0,438,4542.5641025641,4072.30769230769,4008.71794871795,4304.61538461538,4533.33333333333,4455.38461538462,4320,4458.97435897436,4655.89743589744,4156.41025641026,4297.4358974359,4197.4358974359,4002.05128205128,4235.38461538462,1663,1690,52.033,51.9430770874023,0,0,0,0,2/8/2015 6:19:37 AM,
86,0,429,4562.05128205128,4076.92307692308,4011.79487179487,4322.5641025641,4543.07692307692,4445.12820512821,4319.48717948718,4460.51282051282,4652.30769230769,4150.25641025641,4297.94871794872,4203.07692307692,4012.82051282051,4237.94871794872,1662,1692,52.041,51.9430770874023,0,0,0,0,2/8/2015 6:19:37 AM,
87,0,460,4550.76923076923,4071.79487179487,3996.41025641026,4321.02564102564,4569.74358974359,4431.79487179487,4320,4460.51282051282,4645.64102564103,4149.23076923077,4292.30769230769,4199.48717948718,4002.5641025641,4244.61538461538,1663,1691,52.048,51.9430770874023,0,0,0,0,2/8/2015 6:19:37 AM,
88,0,409,4548.20512820513,4089.23076923077,3997.94871794872,4314.35897435897,4561.53846153846,4427.17948717949,4320,4456.41025641026,4650.76923076923,4148.71794871795,4290.25641025641,4207.17948717949,3991.79487179487,4243.07692307692,1663,1691,52.057,51.9430770874023,0,0,0,0,2/8/2015 6:19:37 AM,
89,0,438,4564.61538461538,4109.23076923077,4022.05128205128,4328.71794871795,4524.61538461538,4427.17948717949,4317.4358974359,4444.61538461538,4638.97435897436,4133.33333333333,4297.4358974359,4222.5641025641,4009.23076923077,4261.02564102564,1663,1690,52.064,51.9430770874023,0,0,0,0,2/8/2015 6:19:37 AM,
90,0,429,4580.51282051282,4116.92307692308,4036.92307692308,4336.92307692308,4519.48717948718,4418.97435897436,4316.41025641026,4438.46153846154,4626.15384615385,4118.46153846154,4294.8717948718,4233.84615384615,4017.4358974359,4249.23076923077,1663,1691,52.072,51.9430770874023,0,0,0,0,2/8/2015 6:19:37 AM,
91,0,460,4603.58974358974,4134.8717948718,4044.61538461539,4333.84615384615,4523.58974358974,4407.69230769231,4318.46153846154,4448.71794871795,4631.79487179487,4118.46153846154,4286.66666666667,4248.71794871795,3996.92307692308,4234.35897435897,1664,1692,52.08,51.9430770874023,0,0,0,0,2/8/2015 6:19:37 AM,
92,0,409,4630.25641025641,4157.94871794872,4063.07692307692,4351.79487179487,4516.92307692308,4418.46153846154,4319.48717948718,4455.89743589744,4633.33333333333,4123.58974358974,4293.84615384615,4248.20512820513,3994.35897435898,4306.15384615385,1662,1693,52.087,51.9430770874023,0,0,0,0,2/8/2015 6:19:37 AM,
93,0,438,4654.35897435897,4176.41025641026,4077.94871794872,4376.92307692308,4535.89743589744,4440.51282051282,4318.46153846154,4456.92307692308,4631.28205128205,4125.12820512821,4300.51282051282,4240,4009.23076923077,4373.33333333333,1663,1693,52.095,52.0681838989258,0,0,0,0,2/8/2015 6:19:37 AM,
94,0,429,4685.12820512821,4190.76923076923,4075.89743589744,4374.35897435897,4557.94871794872,4436.41025641026,4317.94871794872,4454.35897435897,4634.35897435897,4126.15384615385,4295.89743589744,4247.69230769231,4007.17948717949,4351.28205128205,1664,1692,52.104,52.0681838989258,0,0,0,0,2/8/2015 6:19:37 AM,
95,0,460,4712.82051282051,4195.89743589744,4074.8717948718,4376.92307692308,4554.35897435897,4421.02564102564,4318.46153846154,4445.12820512821,4621.02564102564,4129.74358974359,4297.4358974359,4249.74358974359,3998.97435897436,4323.07692307692,1662,1694,52.112,52.0681838989258,0,0,0,0,2/8/2015 6:19:37 AM,
96,0,409,4710.25641025641,4209.23076923077,4083.58974358974,4396.41025641026,4563.58974358974,4430.25641025641,4318.97435897436,4442.05128205128,4618.97435897436,4124.10256410256,4298.46153846154,4246.15384615385,3998.97435897436,4330.76923076923,1663,1693,52.118,52.0681838989258,0,0,0,0,2/8/2015 6:19:37 AM,
97,0,438,4685.64102564103,4231.28205128205,4095.89743589744,4404.61538461538,4585.64102564103,4437.4358974359,4316.92307692308,4445.12820512821,4633.33333333333,4118.46153846154,4287.17948717949,4254.35897435897,3992.30769230769,4350.25641025641,1663,1695,52.126,52.0994606018066,0,0,0,0,2/8/2015 6:19:37 AM,
98,0,429,4676.41025641026,4238.46153846154,4101.53846153846,4402.05128205128,4584.61538461538,4425.12820512821,4313.33333333333,4443.07692307692,4615.89743589744,4123.58974358974,4284.61538461538,4252.82051282051,3981.53846153846,4373.84615384615,1664,1693,52.134,52.0994606018066,0,0,0,0,2/8/2015 6:19:37 AM,
99,0,460,4696.92307692308,4239.48717948718,4097.4358974359,4405.64102564103,4579.48717948718,4430.76923076923,4312.30769230769,4440.51282051282,4602.5641025641,4127.17948717949,4287.69230769231,4240,3975.89743589744,4361.53846153846,1664,1694,52.142,52.0994606018066,0,0,0,0,2/8/2015 6:19:37 AM,
100,0,409,4715.89743589744,4248.71794871795,4099.48717948718,4418.97435897436,4584.10256410256,4440,4310.76923076923,4443.58974358974,4623.07692307692,4124.10256410256,4281.02564102564,4247.17948717949,3970.76923076923,4320.51282051282,1664,1693,52.149,52.0994606018066,0,0,0,0,2/8/2015 6:19:37 AM,
101,0,438,4720.51282051282,4250.76923076923,4103.58974358974,4420.51282051282,4574.8717948718,4427.69230769231,4309.74358974359,4446.66666666667,4630.25641025641,4120.51282051282,4273.33333333333,4257.4358974359,3963.07692307692,4313.84615384615,1664,1693,52.157,52.0994606018066,0,0,0,0,2/8/2015 6:19:37 AM,
102,0,429,4725.12820512821,4250.25641025641,4096.92307692308,4415.38461538462,4567.17948717949,4436.92307692308,4310.76923076923,4458.97435897436,4628.71794871795,4121.53846153846,4276.92307692308,4248.71794871795,3956.41025641026,4325.64102564103,1664,1692,52.164,52.0994606018066,0,0,0,0,2/8/2015 6:19:37 AM,
103,0,460,4699.48717948718,4263.07692307692,4098.46153846154,4423.07692307692,4596.41025641026,4467.17948717949,4309.23076923077,4474.35897435897,4648.20512820513,4120,4286.15384615385,4249.74358974359,3962.05128205128,4336.92307692308,1664,1692,52.173,52.0994606018066,0,0,0,0,2/8/2015 6:19:37 AM,
104,0,409,4676.92307692308,4266.66666666667,4114.35897435897,4422.5641025641,4622.5641025641,4467.17948717949,4310.25641025641,4475.89743589744,4653.33333333333,4114.8717948718,4286.15384615385,4266.66666666667,3967.17948717949,4331.79487179487,1665,1692,52.182,52.0994606018066,0,0,0,0,2/8/2015 6:19:37 AM,
105,0,438,4721.53846153846,4260,4113.33333333333,4416.41025641026,4609.23076923077,4454.8717948718,4311.28205128205,4476.92307692308,4640.51282051282,4114.8717948718,4278.97435897436,4268.20512820513,3956.92307692308,4314.35897435897,1665,1690,52.19,52.0994606018066,0,0,0,0,2/8/2015 6:19:37 AM,
106,0,429,4759.48717948718,4264.61538461538,4099.48717948718,4424.61538461538,4609.23076923077,4461.53846153846,4307.17948717949,4476.92307692308,4636.92307692308,4121.02564102564,4277.94871794872,4247.69230769231,3952.30769230769,4327.69230769231,1664,1692,52.198,52.0994606018066,0,0,0,0,2/8/2015 6:19:37 AM,
107,0,460,4727.69230769231,4268.71794871795,4095.89743589744,4430.76923076923,4628.71794871795,4461.02564102564,4305.12820512821,4462.5641025641,4626.66666666667,4123.58974358974,4279.48717948718,4232.82051282051,3956.92307692308,4365.12820512821,1665,1691,52.204,52.0994606018066,0,0,0,0,2/8/2015 6:19:37 AM,
108,0,409,4694.8717948718,4268.20512820513,4098.97435897436,4428.71794871795,4603.07692307692,4453.33333333333,4307.69230769231,4461.53846153846,4618.46153846154,4120,4268.71794871795,4250.25641025641,3957.94871794872,4344.10256410256,1664,1692,52.212,52.0994606018066,0,0,0,0,2/8/2015 6:19:37 AM,
109,0,438,4701.53846153846,4267.17948717949,4108.20512820513,4431.28205128205,4571.79487179487,4455.89743589744,4308.71794871795,4475.38461538462,4630.76923076923,4117.94871794872,4265.12820512821,4270.25641025641,3951.79487179487,4300.51282051282,1665,1693,52.22,52.1932907104492,0,0,0,0,2/8/2015 6:19:37 AM,
110,0,429,4714.8717948718,4259.48717948718,4104.10256410256,4422.5641025641,4604.10256410256,4455.38461538462,4311.79487179487,4468.71794871795,4632.82051282051,4117.94871794872,4281.53846153846,4249.74358974359,3952.30769230769,4335.38461538462,1664,1694,52.228,52.1932907104492,0,0,0,0,2/8/2015 6:19:37 AM,
111,0,460,4717.94871794872,4248.20512820513,4083.07692307692,4404.61538461538,4630.25641025641,4446.66666666667,4314.35897435897,4452.82051282051,4620.51282051282,4117.94871794872,4292.82051282051,4220.51282051282,3964.10256410256,4377.94871794872,1666,1693,52.235,52.1932907104492,0,0,0,0,2/8/2015 6:19:37 AM,
112,0,409,4704.61538461539,4240,4075.38461538462,4405.12820512821,4605.12820512821,4441.53846153846,4312.82051282051,4455.38461538462,4630.25641025641,4116.41025641026,4287.17948717949,4232.30769230769,3968.20512820513,4348.71794871795,1665,1692,52.243,52.1932907104492,0,0,0,0,2/8/2015 6:19:37 AM,
113,0,438,4677.94871794872,4226.66666666667,4089.23076923077,4400,4578.46153846154,4449.74358974359,4315.38461538462,4462.5641025641,4647.69230769231,4110.25641025641,4281.53846153846,4256.41025641026,3964.10256410256,4300,1666,1692,52.25,52.1932907104492,0,0,0,0,2/8/2015 6:19:37 AM,
114,0,429,4660.51282051282,4206.15384615385,4090.25641025641,4385.12820512821,4575.38461538462,4456.92307692308,4321.02564102564,4454.35897435897,4637.94871794872,4104.61538461538,4281.53846153846,4249.74358974359,3971.28205128205,4306.66666666667,1665,1693,52.258,52.1932907104492,0,0,0,0,2/8/2015 6:19:37 AM,
115,0,460,4670.76923076923,4198.97435897436,4066.66666666667,4386.66666666667,4588.71794871795,4452.82051282051,4321.53846153846,4444.10256410256,4625.64102564103,4109.74358974359,4279.48717948718,4231.28205128205,3983.58974358974,4353.33333333333,1665,1693,52.266,52.1932907104492,0,0,0,0,2/8/2015 6:19:37 AM,
116,0,409,4685.64102564103,4204.10256410256,4047.17948717949,4393.33333333333,4596.41025641026,4446.66666666667,4321.02564102564,4445.12820512821,4634.35897435897,4117.4358974359,4278.97435897436,4228.20512820513,3990.76923076923,4358.97435897436,1666,1692,52.274,52.1932907104492,0,0,0,0,2/8/2015 6:19:37 AM,
117,0,438,4661.53846153846,4192.82051282051,4047.69230769231,4389.23076923077,4582.5641025641,4435.89743589744,4321.02564102564,4449.23076923077,4638.46153846154,4113.33333333333,4285.64102564103,4231.79487179487,4001.02564102564,4309.74358974359,1665,1692,52.282,52.1932907104492,0,0,0,0,2/8/2015 6:19:37 AM,
118,0,429,4625.12820512821,4162.05128205128,4053.84615384615,4368.20512820513,4561.53846153846,4420.51282051282,4321.53846153846,4445.12820512821,4626.66666666667,4113.33333333333,4291.28205128205,4232.30769230769,4006.15384615385,4271.28205128205,1665,1693,52.289,52.1932907104492,0,0,0,0,2/8/2015 6:19:37 AM,
119,0,460,4607.17948717949,4132.30769230769,4047.17948717949,4344.61538461538,4550.25641025641,4423.07692307692,4321.02564102564,4441.53846153846,4613.33333333333,4121.02564102564,4294.8717948718,4230.25641025641,4006.66666666667,4291.79487179487,1665,1694,52.297,52.1932907104492,0,0,0,0,2/8/2015 6:19:37 AM,
120,0,409,4590.25641025641,4116.92307692308,4025.12820512821,4339.48717948718,4549.23076923077,4432.82051282051,4321.02564102564,4445.64102564103,4620,4115.38461538462,4294.35897435897,4221.02564102564,4016.41025641026,4304.61538461538,1666,1693,52.306,52.1932907104492,0,0,0,0,2/8/2015 6:19:37 AM,
121,0,438,4576.41025641026,4104.10256410256,4002.5641025641,4341.02564102564,4557.4358974359,4419.48717948718,4321.02564102564,4445.64102564103,4638.97435897436,4113.33333333333,4286.66666666667,4205.12820512821,4019.48717948718,4272.82051282051,1666,1694,52.313,52.1932907104492,0,0,0,0,2/8/2015 6:19:37 AM,
122,0,429,4557.94871794872,4083.07692307692,4000.51282051282,4329.23076923077,4545.12820512821,4405.64102564103,4321.02564102564,4443.07692307692,4638.46153846154,4128.20512820513,4278.97435897436,4198.97435897436,4008.71794871795,4248.71794871795,1665,1693,52.322,52.1932907104492,0,0,0,0,2/8/2015 6:19:37 AM,
123,0,460,4539.48717948718,4064.10256410256,4010.76923076923,4311.79487179487,4509.23076923077,4411.79487179487,4321.02564102564,4445.64102564103,4634.8717948718,4131.28205128205,4276.92307692308,4205.64102564103,4000.51282051282,4245.12820512821,1665,1692,52.329,52.1932907104492,0,0,0,0,2/8/2015 6:19:37 AM,
124,0,409,4549.23076923077,4064.61538461539,4000,4311.28205128205,4521.53846153846,4410.76923076923,4321.02564102564,4447.69230769231,4641.53846153846,4121.02564102564,4280.51282051282,4206.66666666667,4003.07692307692,4241.02564102564,1665,1691,52.336,52.1932907104492,0,0,0,0,2/8/2015 6:19:37 AM,
125,0,438,4561.02564102564,4078.46153846154,3982.05128205128,4325.64102564103,4562.5641025641,4410.76923076923,4321.02564102564,4444.61538461538,4640,4122.05128205128,4286.15384615385,4196.92307692308,4005.64102564103,4241.02564102564,1665,1692,52.344,52.3183975219727,0,0,0,0,2/8/2015 6:19:37 AM,
126,0,429,4527.69230769231,4072.30769230769,3995.89743589744,4324.61538461538,4553.33333333333,4424.10256410256,4321.02564102564,4443.07692307692,4628.71794871795,4121.53846153846,4286.15384615385,4197.4358974359,3993.84615384615,4238.46153846154,1665,1691,52.352,52.3183975219727,0,0,0,0,2/8/2015 6:19:37 AM,
127,0,460,4494.35897435897,4050.76923076923,4014.35897435898,4308.71794871795,4531.79487179487,4432.82051282051,4321.02564102564,4445.64102564103,4631.79487179487,4113.33333333333,4283.07692307692,4205.64102564103,3986.66666666667,4231.79487179487,1664,1692,52.36,52.3183975219727,0,0,0,0,2/8/2015 6:19:37 AM,
128,0,409,4523.58974358974,4054.35897435898,3992.30769230769,4313.33333333333,4550.25641025641,4421.02564102564,4321.02564102564,4436.41025641026,4634.8717948718,4114.8717948718,4273.33333333333,4194.8717948718,3989.74358974359,4228.71794871795,1664,1692,52.368,52.3183975219727,0,0,0,0,2/8/2015 6:19:37 AM,
0,0,460,4552.82051282051,4063.58974358974,3958.97435897436,4324.10256410256,4547.69230769231,4400,4321.02564102564,4416.41025641026,4609.23076923077,4121.53846153846,4252.30769230769,4172.30769230769,3978.46153846154,4208.20512820513,1664,1693,52.376,52.3183975219727,0,0,0,0,2/8/2015 6:19:37 AM,
1,0,442,4515.38461538462,4051.28205128205,3967.69230769231,4315.89743589744,4517.94871794872,4390.76923076923,4321.02564102564,4410.25641025641,4598.97435897436,4121.02564102564,4251.79487179487,4171.79487179487,3970.76923076923,4200.51282051282,1665,1694,52.383,52.3183975219727,0,0,0,0,2/8/2015 6:19:37 AM,
2,0,460,4476.92307692308,4049.23076923077,3994.35897435898,4317.94871794872,4531.79487179487,4398.46153846154,4321.02564102564,4423.07692307692,4632.82051282051,4120,4278.97435897436,4183.07692307692,3986.66666666667,4227.69230769231,1664,1694,52.392,52.3183975219727,0,0,0,0,2/8/2015 6:19:37 AM,
3,0,493,4500,4061.02564102564,3993.84615384615,4329.23076923077,4561.02564102564,4408.20512820513,4321.02564102564,4435.38461538462,4656.92307692308,4121.53846153846,4292.82051282051,4188.20512820513,3994.8717948718,4231.28205128205,1665,1695,52.399,52.3183975219727,0,0,0,0,2/8/2015 6:19:37 AM,
4,0,482,4537.4358974359,4061.53846153846,3984.10256410256,4325.12820512821,4560.51282051282,4414.8717948718,4321.02564102564,4441.53846153846,4654.35897435897,4123.58974358974,4289.74358974359,4191.79487179487,3991.79487179487,4218.97435897436,1665,1695,52.407,52.3183975219727,0,0,0,0,2/8/2015 6:19:37 AM,
5,0,467,4530.76923076923,4057.94871794872,3991.28205128205,4322.5641025641,4547.17948717949,4423.07692307692,4321.02564102564,4445.64102564103,4655.89743589744,4120.51282051282,4278.97435897436,4190.25641025641,3992.82051282051,4209.23076923077,1665,1695,52.416,52.3183975219727,0,0,0,0,2/8/2015 6:19:37 AM,
6,0,482,4498.97435897436,4056.41025641026,3997.4358974359,4326.66666666667,4542.5641025641,4436.41025641026,4321.02564102564,4445.12820512821,4657.94871794872,4124.10256410256,4255.38461538462,4188.20512820513,3979.48717948718,4188.20512820513,1666,1694,52.422,52.3183975219727,0,0,0,0,2/8/2015 6:19:37 AM,
7,0,0,4489.74358974359,4052.30769230769,3988.71794871795,4325.12820512821,4550.25641025641,4445.12820512821,4321.02564102564,4445.12820512821,4655.38461538462,4136.41025641026,4252.30769230769,4186.15384615385,3969.23076923077,4205.64102564103,1665,1695,52.43,52.3183975219727,0,0,0,0,2/8/2015 6:19:37 AM,
8,0,407,4508.20512820513,4053.33333333333,3972.30769230769,4318.97435897436,4568.71794871795,4437.94871794872,4321.02564102564,4445.12820512821,4658.97435897436,4131.79487179487,4277.94871794872,4173.33333333333,3980.51282051282,4247.17948717949,1665,1693,52.439,52.3183975219727,0,0,0,0,2/8/2015 6:19:37 AM,
9,0,427,4498.46153846154,4044.10256410256,3957.94871794872,4312.30769230769,4569.23076923077,4425.64102564103,4321.02564102564,4443.07692307692,4652.82051282051,4106.66666666667,4282.05128205128,4164.10256410256,3984.61538461539,4223.07692307692,1663,1695,52.448,52.3183975219727,0,0,0,0,2/8/2015 6:19:37 AM,
10,0,429,4457.4358974359,4021.53846153846,3965.64102564103,4310.76923076923,4547.69230769231,4416.41025641026,4321.02564102564,4445.12820512821,4642.5641025641,4103.07692307692,4270.76923076923,4179.48717948718,3968.20512820513,4152.82051282051,1664,1693,52.457,52.3183975219727,0,0,0,0,2/8/2015 6:19:37 AM,
11,0,459,4445.64102564103,4018.97435897436,3987.69230769231,4306.66666666667,4517.94871794872,4400.51282051282,4321.02564102564,4438.97435897436,4638.46153846154,4121.02564102564,4261.02564102564,4191.79487179487,3954.8717948718,4125.12820512821,1663,1693,52.465,52.3183975219727,0,0,0,0,2/8/2015 6:19:37 AM,
12,0,409,4472.30769230769,4030.25641025641,3983.58974358974,4296.41025641026,4500,4390.76923076923,4321.02564102564,4429.23076923077,4633.33333333333,4118.97435897436,4251.28205128205,4175.89743589744,3965.12820512821,4177.94871794872,1663,1695,52.472,52.4435081481934,0,0,0,0,2/8/2015 6:19:37 AM,
13,0,438,4492.82051282051,4030.76923076923,3965.12820512821,4303.07692307692,4537.4358974359,4405.12820512821,4321.02564102564,4434.8717948718,4631.28205128205,4108.71794871795,4262.5641025641,4166.66666666667,3978.46153846154,4240,1663,1693,52.48,52.4435081481934,0,0,0,0,2/8/2015 6:19:37 AM,
14,0,429,4490.76923076923,4031.79487179487,3974.8717948718,4323.07692307692,4583.07692307692,4419.48717948718,4321.02564102564,4447.17948717949,4628.71794871795,4109.23076923077,4277.4358974359,4182.5641025641,3965.12820512821,4233.84615384615,1663,1693,52.488,52.4435081481934,0,0,0,0,2/8/2015 6:19:37 AM,
15,0,459,4477.94871794872,4041.53846153846,3984.10256410256,4324.10256410256,4564.10256410256,4412.82051282051,4321.02564102564,4444.61538461538,4622.5641025641,4111.79487179487,4264.61538461538,4182.05128205128,3949.74358974359,4209.23076923077,1663,1693,52.496,52.4435081481934,0,0,0,0,2/8/2015 6:19:37 AM,
16,0,0,4481.02564102564,4048.20512820513,3975.38461538462,4316.41025641026,4531.79487179487,4406.15384615385,4321.02564102564,4435.89743589744,4634.8717948718,4115.89743589744,4255.38461538462,4169.23076923077,3963.07692307692,4201.53846153846,1664,1695,52.504,52.4435081481934,0,0,0,0,2/8/2015 6:19:37 AM,
17,0,0,4504.10256410256,4043.58974358974,3983.07692307692,4317.4358974359,4537.4358974359,4418.46153846154,4321.02564102564,4434.35897435897,4656.92307692308,4120.51282051282,4268.20512820513,4178.46153846154,3980.51282051282,4196.92307692308,1664,1694,52.511,52.4435081481934,0,0,0,0,2/8/2015 6:19:37 AM,
18,0,0,4515.38461538462,4040,3990.25641025641,4321.02564102564,4550.76923076923,4434.8717948718,4321.02564102564,4431.79487179487,4655.89743589744,4125.12820512821,4268.71794871795,4186.66666666667,3977.94871794872,4214.35897435897,1663,1696,52.519,52.4435081481934,0,0,0,0,2/8/2015 6:19:37 AM,
19,0,0,4505.64102564103,4053.33333333333,3981.02564102564,4332.30769230769,4548.71794871795,4421.53846153846,4321.02564102564,4428.71794871795,4633.84615384615,4123.58974358974,4261.02564102564,4186.66666666667,3963.58974358974,4223.07692307692,1664,1695,52.527,52.4435081481934,0,0,0,0,2/8/2015 6:19:37 AM,
20,0,0,4501.02564102564,4066.15384615385,3987.69230769231,4335.38461538462,4553.84615384615,4394.35897435897,4321.02564102564,4428.71794871795,4632.82051282051,4117.4358974359,4269.74358974359,4192.82051282051,3963.58974358974,4207.17948717949,1664,1695,52.535,52.4435081481934,0,0,0,0,2/8/2015 6:19:37 AM,
21,0,0,4509.23076923077,4054.8717948718,3997.4358974359,4323.58974358974,4563.07692307692,4401.02564102564,4321.02564102564,4428.20512820513,4654.35897435897,4117.4358974359,4281.02564102564,4189.23076923077,3987.17948717949,4209.74358974359,1664,1695,52.543,52.4435081481934,0,0,0,0,2/8/2015 6:19:37 AM,
22,0,0,4507.69230769231,4038.97435897436,3983.07692307692,4324.10256410256,4552.82051282051,4425.64102564103,4321.02564102564,4428.20512820513,4658.97435897436,4125.12820512821,4283.58974358974,4182.05128205128,3998.97435897436,4219.48717948718,1664,1695,52.551,52.4435081481934,0,0,0,0,2/8/2015 6:19:37 AM,
23,0,0,4493.33333333333,4046.15384615385,3969.74358974359,4335.89743589744,4528.20512820513,4430.25641025641,4321.02564102564,4428.71794871795,4646.15384615385,4124.61538461538,4272.30769230769,4183.58974358974,3988.71794871795,4220.51282051282,1664,1695,52.558,52.4435081481934,0,0,0,0,2/8/2015 6:19:37 AM,
24,0,0,4488.71794871795,4055.38461538462,3983.07692307692,4329.23076923077,4529.74358974359,4432.30769230769,4321.02564102564,4433.33333333333,4646.15384615385,4116.41025641026,4260,4183.58974358974,3978.46153846154,4214.35897435897,1664,1691,52.566,52.4435081481934,0,0,0,0,2/8/2015 6:19:37 AM,
25,0,0,4492.30769230769,4047.69230769231,3998.46153846154,4318.46153846154,4557.4358974359,4446.15384615385,4321.02564102564,4443.07692307692,4655.89743589744,4117.94871794872,4260.51282051282,4188.20512820513,3964.61538461539,4189.74358974359,1663,1692,52.575,52.4435081481934,0,0,0,0,2/8/2015 6:19:37 AM,
26,0,0,4502.5641025641,4047.69230769231,3997.4358974359,4329.74358974359,4565.64102564103,4450.76923076923,4321.02564102564,4444.10256410256,4651.28205128205,4123.07692307692,4269.74358974359,4193.33333333333,3956.41025641026,4187.69230769231,1664,1691,52.584,52.4435081481934,0,0,0,0,2/8/2015 6:19:37 AM,
27,0,0,4509.74358974359,4060,3989.74358974359,4339.48717948718,4544.10256410256,4437.94871794872,4321.02564102564,4430.25641025641,4640.51282051282,4113.84615384615,4275.38461538462,4183.58974358974,3967.17948717949,4221.53846153846,1664,1692,52.593,52.4435081481934,0,0,0,0,2/8/2015 6:19:37 AM,
28,0,0,4495.89743589744,4060,3985.12820512821,4334.8717948718,4525.12820512821,4424.10256410256,4321.02564102564,4424.61538461538,4644.10256410256,4104.61538461538,4270.25641025641,4178.97435897436,3982.05128205128,4223.07692307692,1664,1691,52.597,52.5686149597168,0,0,0,0,2/8/2015 6:19:37 AM,
29,0,0,4489.74358974359,4050.25641025641,3976.92307692308,4338.97435897436,4536.92307692308,4414.35897435897,4321.02564102564,4425.12820512821,4651.79487179487,4115.38461538462,4266.15384615385,4184.61538461538,3983.07692307692,4197.94871794872,1664,1692,52.604,52.5686149597168,0,0,0,0,2/8/2015 6:19:37 AM,
30,0,0,4503.58974358974,4051.79487179487,3968.71794871795,4342.5641025641,4558.46153846154,4408.71794871795,4321.02564102564,4415.89743589744,4636.41025641026,4116.92307692308,4272.82051282051,4183.58974358974,3980.51282051282,4199.48717948718,1665,1689,52.611,52.5686149597168,0,0,0,0,2/8/2015 6:19:37 AM,
31,0,0,4497.94871794872,4054.35897435898,3975.38461538462,4328.71794871795,4549.74358974359,4411.28205128205,4321.02564102564,4409.74358974359,4623.58974358974,4098.97435897436,4282.5641025641,4185.12820512821,3984.61538461539,4212.82051282051,1663,1690,52.619,52.5686149597168,0,0,0,0,2/8/2015 6:19:37 AM,
32,0,0,4478.46153846154,4051.79487179487,3981.53846153846,4325.12820512821,4516.92307692308,4421.02564102564,4321.02564102564,4408.71794871795,4646.15384615385,4097.94871794872,4282.05128205128,4184.10256410256,3993.84615384615,4218.46153846154,1664,1689,52.629,52.5998916625977,0,0,0,0,2/8/2015 6:19:37 AM,
33,0,0,4487.17948717949,4055.38461538462,3985.64102564103,4334.35897435897,4506.66666666667,4428.71794871795,4321.02564102564,4400.51282051282,4664.10256410256,4110.76923076923,4270.76923076923,4183.58974358974,3988.20512820513,4194.8717948718,1664,1689,52.637,52.5998916625977,0,0,0,0,2/8/2015 6:19:37 AM,
34,0,0,4493.33333333333,4050.76923076923,3996.92307692308,4328.71794871795,4518.97435897436,4428.20512820513,4321.02564102564,4396.41025641026,4652.82051282051,4106.66666666667,4255.89743589744,4193.33333333333,3966.66666666667,4148.20512820513,1664,1691,52.644,52.5998916625977,0,0,0,0,2/8/2015 6:19:37 AM,
35,0,0,4482.5641025641,4042.05128205128,3998.46153846154,4327.17948717949,4522.05128205128,4424.61538461538,4321.02564102564,4395.38461538462,4647.69230769231,4101.53846153846,4260,4192.30769230769,3965.12820512821,4163.58974358974,1664,1691,52.652,52.5998916625977,0,0,0,0,2/8/2015 6:19:37 AM,
36,0,0,4502.05128205128,4051.28205128205,3988.71794871795,4339.48717948718,4527.69230769231,4428.20512820513,4321.02564102564,4386.66666666667,4661.53846153846,4108.20512820513,4277.94871794872,4179.48717948718,3980,4236.92307692308,1663,1693,52.66,52.5998916625977,0,0,0,0,2/8/2015 6:19:37 AM,
37,0,0,4525.64102564103,4060,3985.12820512821,4337.4358974359,4552.82051282051,4429.23076923077,4321.02564102564,4379.48717948718,4664.10256410256,4108.20512820513,4272.30769230769,4181.02564102564,3976.41025641026,4245.12820512821,1664,1692,52.667,52.5998916625977,0,0,0,0,2/8/2015 6:19:37 AM,
38,0,0,4503.07692307692,4051.28205128205,3986.15384615385,4337.94871794872,4575.89743589744,4418.46153846154,4321.02564102564,4382.05128205128,4656.41025641026,4102.05128205128,4261.02564102564,4184.61538461538,3972.82051282051,4200,1663,1692,52.675,52.5998916625977,0,0,0,0,2/8/2015 6:19:37 AM,
39,0,0,4482.05128205128,4051.28205128205,3983.07692307692,4346.66666666667,4562.5641025641,4409.23076923077,4321.02564102564,4389.74358974359,4663.58974358974,4111.28205128205,4275.38461538462,4175.38461538462,3986.15384615385,4196.92307692308,1664,1692,52.682,52.5998916625977,0,0,0,0,2/8/2015 6:19:37 AM,
40,0,0,4503.07692307692,4054.35897435898,3987.17948717949,4333.84615384615,4530.25641025641,4411.28205128205,4321.02564102564,4395.38461538462,4681.53846153846,4124.10256410256,4276.41025641026,4180.51282051282,3982.5641025641,4198.97435897436,1664,1693,52.69,52.5998916625977,0,0,0,0,2/8/2015 6:19:37 AM,
41,0,0,4501.02564102564,4036.41025641026,3995.38461538462,4321.02564102564,4527.69230769231,4403.58974358974,4321.02564102564,4391.79487179487,4671.28205128205,4114.35897435897,4258.46153846154,4190.76923076923,3964.10256410256,4187.69230769231,1665,1693,52.698,52.5998916625977,0,0,0,0,2/8/2015 6:19:37 AM,
42,0,0,4465.12820512821,4028.20512820513,3980.51282051282,4331.79487179487,4552.82051282051,4389.74358974359,4321.02564102564,4377.94871794872,4628.20512820513,4096.92307692308,4266.66666666667,4170.76923076923,3974.8717948718,4207.69230769231,1664,1693,52.706,52.5998916625977,0,0,0,0,2/8/2015 6:19:37 AM,
43,0,0,4462.5641025641,4045.12820512821,3962.05128205128,4337.94871794872,4562.5641025641,4401.02564102564,4321.02564102564,4376.92307692308,4616.92307692308,4096.92307692308,4278.97435897436,4163.58974358974,3988.20512820513,4209.74358974359,1665,1692,52.715,52.5998916625977,0,0,0,0,2/8/2015 6:19:37 AM,
44,0,0,4481.02564102564,4051.79487179487,3975.89743589744,4332.30769230769,4534.8717948718,4414.8717948718,4321.02564102564,4398.97435897436,4654.35897435897,4112.30769230769,4265.64102564103,4184.61538461538,3978.46153846154,4197.94871794872,1664,1692,52.723,52.6937217712402,0,0,0,0,2/8/2015 6:19:37 AM,
45,0,0,4480.51282051282,4048.71794871795,3993.33333333333,4333.33333333333,4523.07692307692,4409.23076923077,4321.02564102564,4416.41025641026,4682.05128205128,4117.94871794872,4264.61538461538,4184.61538461538,3980.51282051282,4230.76923076923,1665,1691,52.73,52.6937217712402,0,0,0,0,2/8/2015 6:19:37 AM,
46,0,0,4472.82051282051,4048.71794871795,3980,4333.84615384615,4536.92307692308,4407.69230769231,4321.02564102564,4415.89743589744,4680.51282051282,4108.20512820513,4281.53846153846,4170.76923076923,3991.28205128205,4236.41025641026,1664,1692,52.738,52.6937217712402,0,0,0,0,2/8/2015 6:19:37 AM,
47,0,0,4473.84615384615,4046.66666666667,3970.76923076923,4334.35897435897,4535.38461538462,4414.8717948718,4321.02564102564,4414.35897435897,4679.48717948718,4104.61538461538,4283.58974358974,4177.94871794872,3988.20512820513,4179.48717948718,1664,1690,52.746,52.6937217712402,0,0,0,0,2/8/2015 6:19:37 AM,
48,0,0,4475.89743589744,4047.69230769231,3984.61538461539,4343.07692307692,4536.92307692308,4416.41025641026,4321.02564102564,4415.38461538462,4674.35897435897,4105.12820512821,4267.69230769231,4186.15384615385,3985.12820512821,4162.5641025641,1664,1690,52.753,52.6937217712402,0,0,0,0,2/8/2015 6:19:37 AM,
49,0,0,4475.38461538462,4053.84615384615,3990.25641025641,4341.02564102564,4544.61538461538,4410.76923076923,4321.02564102564,4403.07692307692,4656.92307692308,4104.61538461538,4255.38461538462,4181.53846153846,3982.5641025641,4202.05128205128,1664,1690,52.761,52.6937217712402,0,0,0,0,2/8/2015 6:19:37 AM,
50,0,0,4476.92307692308,4046.15384615385,3987.69230769231,4324.10256410256,4539.48717948718,4392.82051282051,4321.02564102564,4389.23076923077,4647.17948717949,4112.82051282051,4265.12820512821,4181.53846153846,3969.74358974359,4217.94871794872,1663,1691,52.768,52.6937217712402,0,0,0,0,2/8/2015 6:19:37 AM,
51,0,0,4488.71794871795,4037.94871794872,3989.74358974359,4325.64102564103,4547.69230769231,4377.94871794872,4321.02564102564,4390.25641025641,4645.64102564103,4120.51282051282,4283.07692307692,4187.69230769231,3972.30769230769,4210.76923076923,1663,1691,52.776,52.6937217712402,0,0,0,0,2/8/2015 6:19:37 AM,
52,0,0,4509.23076923077,4051.79487179487,3981.02564102564,4347.69230769231,4574.35897435897,4397.94871794872,4321.02564102564,4396.92307692308,4653.84615384615,4111.79487179487,4276.92307692308,4182.5641025641,3994.35897435898,4217.94871794872,1663,1690,52.785,52.6937217712402,0,0,0,0,2/8/2015 6:19:37 AM,
53,0,0,4507.69230769231,4063.07692307692,3974.35897435898,4355.89743589744,4567.69230769231,4426.15384615385,4321.02564102564,4401.53846153846,4668.20512820513,4103.07692307692,4262.5641025641,4174.8717948718,3998.97435897436,4212.30769230769,1663,1693,52.792,52.6937217712402,0,0,0,0,2/8/2015 6:19:37 AM,
54,0,0,4483.07692307692,4047.69230769231,3990.25641025641,4337.4358974359,4524.61538461538,4426.15384615385,4321.02564102564,4403.58974358974,4670.76923076923,4107.17948717949,4261.02564102564,4180,3982.5641025641,4199.48717948718,1664,1691,52.801,52.6937217712402,0,0,0,0,2/8/2015 6:19:37 AM,
55,0,0,4467.69230769231,4037.4358974359,3990.76923076923,4321.02564102564,4510.25641025641,4415.89743589744,4321.02564102564,4407.69230769231,4653.33333333333,4106.66666666667,4266.66666666667,4182.05128205128,3972.82051282051,4210.76923076923,1662,1693,52.808,52.6937217712402,0,0,0,0,2/8/2015 6:19:37 AM,
56,0,0,4467.69230769231,4054.35897435898,3973.84615384615,4330.76923076923,4540.51282051282,4410.76923076923,4321.02564102564,4406.15384615385,4645.12820512821,4103.07692307692,4274.8717948718,4176.41025641026,3974.35897435898,4221.02564102564,1663,1691,52.815,52.6937217712402,0,0,0,0,2/8/2015 6:19:37 AM,
57,0,0,4465.12820512821,4058.97435897436,3978.97435897436,4340.51282051282,4565.12820512821,4410.76923076923,4321.02564102564,4400,4657.94871794872,4108.20512820513,4268.20512820513,4178.97435897436,3971.79487179487,4205.64102564103,1663,1692,52.822,52.6937217712402,0,0,0,0,2/8/2015 6:19:37 AM,
58,0,0,4464.10256410256,4035.38461538462,3984.10256410256,4329.74358974359,4553.84615384615,4421.53846153846,4321.02564102564,4397.94871794872,4663.07692307692,4103.58974358974,4250.25641025641,4176.41025641026,3971.79487179487,4193.33333333333,1663,1692,52.831,52.6937217712402,0,0,0,0,2/8/2015 6:19:37 AM,
59,0,0,4478.46153846154,4030.25641025641,3971.28205128205,4324.61538461538,4528.20512820513,4426.15384615385,4321.02564102564,4396.92307692308,4651.28205128205,4091.79487179487,4253.33333333333,4164.10256410256,3983.07692307692,4204.61538461538,1663,1694,52.84,52.6937217712402,0,0,0,0,2/8/2015 6:19:37 AM,
60,0,0,4493.33333333333,4057.94871794872,3970.25641025641,4334.35897435897,4533.84615384615,4416.41025641026,4321.02564102564,4388.20512820513,4645.12820512821,4098.46153846154,4271.79487179487,4168.71794871795,3983.07692307692,4220,1664,1694,52.847,52.8188285827637,0,0,0,0,2/8/2015 6:19:37 AM,
61,0,0,4485.12820512821,4069.74358974359,3994.8717948718,4337.94871794872,4555.38461538462,4412.82051282051,4321.02564102564,4377.4358974359,4647.17948717949,4113.84615384615,4269.74358974359,4183.58974358974,3972.30769230769,4221.53846153846,1663,1694,52.856,52.8188285827637,0,0,0,0,2/8/2015 6:19:37 AM,
62,0,0,4482.05128205128,4052.30769230769,4011.28205128205,4337.4358974359,4549.23076923077,4415.89743589744,4321.02564102564,4377.4358974359,4649.23076923077,4109.23076923077,4255.89743589744,4190.76923076923,3977.4358974359,4216.41025641026,1663,1694,52.862,52.8188285827637,0,0,0,0,2/8/2015 6:19:37 AM,
63,0,0,4516.92307692308,4052.82051282051,3993.33333333333,4344.10256410256,4543.58974358974,4417.4358974359,4321.02564102564,4380.51282051282,4649.74358974359,4102.05128205128,4265.12820512821,4187.69230769231,3992.82051282051,4227.69230769231,1663,1692,52.87,52.8188285827637,0,0,0,0,2/8/2015 6:19:37 AM,
64,0,460,4531.28205128205,4075.89743589744,3964.10256410256,4343.58974358974,4560.51282051282,4423.07692307692,4321.02564102564,4378.97435897436,4638.97435897436,4106.66666666667,4283.07692307692,4170.76923076923,3991.79487179487,4230.76923076923,1663,1695,52.878,52.8188285827637,0,0,0,0,2/8/2015 6:19:37 AM,
65,0,442,4495.89743589744,4075.89743589744,3968.20512820513,4331.28205128205,4548.71794871795,4424.10256410256,4321.02564102564,4379.48717948718,4634.8717948718,4103.07692307692,4274.8717948718,4163.58974358974,3972.82051282051,4219.48717948718,1664,1694,52.886,52.8188285827637,0,0,0,0,2/8/2015 6:19:37 AM,
66,0,465,4478.97435897436,4052.30769230769,3987.69230769231,4326.15384615385,4518.46153846154,4411.79487179487,4321.02564102564,4384.61538461538,4648.20512820513,4095.89743589744,4253.33333333333,4171.28205128205,3969.23076923077,4220,1662,1695,52.894,52.8188285827637,0,0,0,0,2/8/2015 6:19:37 AM,
67,0,493,4486.15384615385,4051.79487179487,3982.5641025641,4337.94871794872,4533.33333333333,4408.71794871795,4321.02564102564,4386.15384615385,4650.25641025641,4097.4358974359,4256.92307692308,4173.33333333333,3984.10256410256,4218.97435897436,1663,1694,52.9,52.8188285827637,0,0,0,0,2/8/2015 6:19:37 AM,
68,0,482,4469.74358974359,4070.25641025641,3978.46153846154,4344.10256410256,4556.41025641026,4418.46153846154,4321.02564102564,4381.53846153846,4637.4358974359,4101.02564102564,4277.94871794872,4169.23076923077,3993.84615384615,4223.58974358974,1663,1694,52.908,52.8188285827637,0,0,0,0,2/8/2015 6:19:38 AM,
69,0,467,4471.28205128205,4070.76923076923,3983.58974358974,4330.25641025641,4558.46153846154,4427.17948717949,4321.02564102564,4378.97435897436,4641.02564102564,4110.76923076923,4275.89743589744,4168.71794871795,3992.30769230769,4227.69230769231,1663,1695,52.916,52.8188285827637,0,0,0,0,2/8/2015 6:19:38 AM,
70,0,482,4505.12820512821,4068.71794871795,3975.38461538462,4322.5641025641,4564.10256410256,4433.33333333333,4321.02564102564,4378.97435897436,4652.82051282051,4117.94871794872,4261.02564102564,4170.25641025641,3986.66666666667,4225.64102564103,1663,1694,52.924,52.8188285827637,0,0,0,0,2/8/2015 6:19:38 AM,
71,0,0,4499.48717948718,4076.92307692308,3966.66666666667,4337.94871794872,4533.33333333333,4424.61538461538,4321.02564102564,4371.79487179487,4647.69230769231,4117.94871794872,4271.28205128205,4169.23076923077,3991.28205128205,4232.30769230769,1663,1694,52.932,52.8188285827637,0,0,0,0,2/8/2015 6:19:38 AM,
72,0,407,4482.05128205128,4073.84615384615,3973.84615384615,4349.74358974359,4496.92307692308,4408.71794871795,4321.02564102564,4362.5641025641,4642.5641025641,4115.38461538462,4283.58974358974,4174.35897435897,3998.97435897436,4221.53846153846,1664,1694,52.94,52.8188285827637,0,0,0,0,2/8/2015 6:19:38 AM,
73,0,427,4492.82051282051,4067.69230769231,3982.05128205128,4343.07692307692,4535.89743589744,4416.92307692308,4321.02564102564,4368.20512820513,4648.71794871795,4115.38461538462,4269.74358974359,4185.12820512821,3993.33333333333,4200,1665,1693,52.947,52.8188285827637,0,0,0,0,2/8/2015 6:19:38 AM,
74,0,429,4483.07692307692,4074.35897435898,3983.58974358974,4339.48717948718,4583.07692307692,4437.4358974359,4321.02564102564,4382.5641025641,4648.71794871795,4116.92307692308,4263.58974358974,4184.10256410256,3985.64102564103,4229.74358974359,1665,1692,52.955,52.8188285827637,0,0,0,0,2/8/2015 6:19:38 AM,
75,0,455,4472.30769230769,4076.92307692308,3979.48717948718,4343.07692307692,4569.74358974359,4438.46153846154,4321.02564102564,4385.64102564103,4647.17948717949,4120,4280.51282051282,4171.28205128205,3993.84615384615,4264.61538461538,1663,1695,52.963,52.8188285827637,0,0,0,0,2/8/2015 6:19:38 AM,
76,0,409,4496.92307692308,4075.38461538462,3970.25641025641,4343.58974358974,4558.97435897436,4422.05128205128,4321.02564102564,4381.02564102564,4655.89743589744,4122.05128205128,4286.15384615385,4167.17948717949,4002.5641025641,4235.89743589744,1665,1693,52.971,52.9439353942871,0,0,0,0,2/8/2015 6:19:38 AM,
77,0,439,4499.48717948718,4080.51282051282,3969.74358974359,4334.35897435897,4551.28205128205,4413.84615384615,4321.02564102564,4385.64102564103,4662.05128205128,4123.07692307692,4281.02564102564,4169.74358974359,4001.53846153846,4226.66666666667,1664,1694,52.979,52.9439353942871,0,0,0,0,2/8/2015 6:19:38 AM,
78,0,429,4468.71794871795,4065.64102564103,3977.94871794872,4324.61538461538,4522.05128205128,4415.38461538462,4321.02564102564,4389.23076923077,4661.02564102564,4117.94871794872,4273.33333333333,4169.23076923077,3991.28205128205,4242.05128205128,1665,1694,52.987,52.9439353942871,0,0,0,0,2/8/2015 6:19:38 AM,
79,0,455,4471.28205128205,4048.20512820513,3976.92307692308,4330.25641025641,4525.12820512821,4416.41025641026,4321.02564102564,4384.10256410256,4655.89743589744,4106.66666666667,4262.05128205128,4170.25641025641,3968.71794871795,4211.79487179487,1664,1693,52.995,52.9439353942871,0,0,0,0,2/8/2015 6:19:38 AM,
80,0,409,4485.64102564103,4066.66666666667,3968.20512820513,4348.20512820513,4555.89743589744,4420,4321.02564102564,4380.51282051282,4648.71794871795,4109.74358974359,4260.51282051282,4167.69230769231,3970.76923076923,4205.12820512821,1664,1692,53.004,52.9439353942871,0,0,0,0,2/8/2015 6:19:38 AM,
81,0,439,4464.61538461538,4079.48717948718,3974.8717948718,4342.5641025641,4555.38461538462,4421.53846153846,4321.02564102564,4380,4651.28205128205,4124.61538461538,4265.12820512821,4170.25641025641,3997.94871794872,4225.12820512821,1665,1691,53.011,52.9439353942871,0,0,0,0,2/8/2015 6:19:38 AM,
82,0,429,4459.48717948718,4062.5641025641,3984.10256410256,4321.02564102564,4541.53846153846,4409.23076923077,4321.02564102564,4385.12820512821,4662.05128205128,4122.05128205128,4270.76923076923,4185.12820512821,3997.4358974359,4211.79487179487,1665,1690,53.019,52.9439353942871,0,0,0,0,2/8/2015 6:19:38 AM,
83,0,455,4498.46153846154,4067.69230769231,3977.4358974359,4332.30769230769,4537.94871794872,4405.12820512821,4321.02564102564,4393.33333333333,4663.07692307692,4112.82051282051,4279.48717948718,4185.12820512821,3984.10256410256,4237.94871794872,1665,1689,53.027,52.9439353942871,0,0,0,0,2/8/2015 6:19:38 AM,
84,0,409,4516.92307692308,4095.89743589744,3976.41025641026,4356.92307692308,4529.74358974359,4423.07692307692,4321.02564102564,4393.33333333333,4657.94871794872,4110.76923076923,4271.79487179487,4170.25641025641,3993.84615384615,4287.69230769231,1664,1690,53.034,52.9439353942871,0,0,0,0,2/8/2015 6:19:38 AM,
85,0,439,4492.82051282051,4088.71794871795,3989.23076923077,4347.69230769231,4518.46153846154,4423.58974358974,4321.02564102564,4379.48717948718,4645.12820512821,4106.15384615385,4258.97435897436,4178.97435897436,3989.74358974359,4244.10256410256,1664,1689,53.042,52.9439353942871,0,0,0,0,2/8/2015 6:19:38 AM,
86,0,429,4484.10256410256,4066.66666666667,3991.79487179487,4330.76923076923,4519.48717948718,4399.48717948718,4321.02564102564,4364.61538461538,4612.82051282051,4098.46153846154,4264.10256410256,4195.38461538462,3968.71794871795,4194.35897435897,1664,1690,53.049,52.9439353942871,0,0,0,0,2/8/2015 6:19:38 AM,
87,0,455,4496.92307692308,4070.25641025641,3984.10256410256,4330.25641025641,4539.48717948718,4393.33333333333,4321.02564102564,4367.17948717949,4603.58974358974,4104.61538461538,4265.64102564103,4180.51282051282,3978.97435897436,4235.89743589744,1665,1689,53.057,52.9439353942871,0,0,0,0,2/8/2015 6:19:38 AM,
88,0,409,4492.82051282051,4077.94871794872,3989.74358974359,4338.46153846154,4555.38461538462,4405.12820512821,4321.02564102564,4384.61538461538,4647.69230769231,4119.48717948718,4264.10256410256,4162.5641025641,4004.61538461539,4280.51282051282,1663,1691,53.065,52.9439353942871,0,0,0,0,2/8/2015 6:19:38 AM,
89,0,439,4495.38461538462,4081.02564102564,3994.8717948718,4348.71794871795,4543.07692307692,4414.8717948718,4321.02564102564,4395.38461538462,4682.5641025641,4121.53846153846,4272.82051282051,4173.33333333333,3999.48717948718,4268.71794871795,1664,1691,53.072,52.9439353942871,0,0,0,0,2/8/2015 6:19:38 AM,
90,0,429,4516.41025641026,4094.8717948718,3988.71794871795,4350.76923076923,4530.25641025641,4422.05128205128,4321.02564102564,4386.66666666667,4672.82051282051,4110.25641025641,4277.94871794872,4187.17948717949,3981.02564102564,4235.89743589744,1663,1691,53.081,52.9439353942871,0,0,0,0,2/8/2015 6:19:38 AM,
91,0,455,4520,4091.28205128205,3988.71794871795,4343.07692307692,4537.4358974359,4413.84615384615,4321.02564102564,4374.8717948718,4660.51282051282,4102.05128205128,4279.48717948718,4186.66666666667,3985.64102564103,4225.12820512821,1662,1692,53.089,52.9439353942871,0,0,0,0,2/8/2015 6:19:38 AM,
92,0,409,4497.4358974359,4071.28205128205,3987.17948717949,4349.74358974359,4543.07692307692,4397.94871794872,4321.02564102564,4372.30769230769,4660.51282051282,4102.05128205128,4276.41025641026,4180,4000,4254.35897435897,1663,1691,53.097,53.0690422058105,0,0,0,0,2/8/2015 6:19:38 AM,
93,0,439,4473.33333333333,4082.05128205128,3988.71794871795,4355.38461538462,4544.61538461538,4400.51282051282,4321.02564102564,4371.79487179487,4653.84615384615,4102.05128205128,4265.64102564103,4182.05128205128,3998.46153846154,4257.4358974359,1663,1692,53.105,53.0690422058105,0,0,0,0,2/8/2015 6:19:38 AM,
94,0,429,4468.20512820513,4092.30769230769,4004.10256410256,4333.84615384615,4534.35897435897,4403.58974358974,4321.02564102564,4367.69230769231,4640,4105.12820512821,4256.92307692308,4191.28205128205,3981.02564102564,4225.12820512821,1663,1692,53.113,53.0690422058105,0,0,0,0,2/8/2015 6:19:38 AM,
95,0,455,4484.10256410256,4076.41025641026,4002.05128205128,4327.69230769231,4522.05128205128,4396.92307692308,4321.02564102564,4372.30769230769,4637.4358974359,4112.30769230769,4261.53846153846,4182.5641025641,3972.82051282051,4249.23076923077,1662,1692,53.121,53.0690422058105,0,0,0,0,2/8/2015 6:19:38 AM,
96,0,409,4496.92307692308,4083.07692307692,3981.53846153846,4352.30769230769,4546.15384615385,4404.10256410256,4321.53846153846,4388.71794871795,4653.84615384615,4110.76923076923,4274.8717948718,4170.25641025641,3989.74358974359,4268.71794871795,1663,1692,53.128,53.1003227233887,0,0,0,0,2/8/2015 6:19:38 AM,
97,0,439,4492.82051282051,4098.97435897436,3992.30769230769,4363.07692307692,4566.66666666667,4414.8717948718,4320.51282051282,4398.97435897436,4668.20512820513,4094.35897435898,4280,4192.30769230769,4003.58974358974,4220,1663,1693,53.136,53.1003227233887,0,0,0,0,2/8/2015 6:19:38 AM,
98,0,429,4487.69230769231,4085.12820512821,4012.82051282051,4350.25641025641,4546.66666666667,4409.23076923077,4318.97435897436,4388.71794871795,4656.92307692308,4084.10256410256,4271.28205128205,4211.28205128205,3996.41025641026,4224.61538461538,1664,1692,53.143,53.1003227233887,0,0,0,0,2/8/2015 6:19:38 AM,
99,0,455,4489.74358974359,4076.92307692308,3999.48717948718,4339.48717948718,4532.30769230769,4401.53846153846,4318.97435897436,4370.76923076923,4642.05128205128,4097.94871794872,4262.5641025641,4191.79487179487,3988.20512820513,4280,1665,1693,53.151,53.1003227233887,0,0,0,0,2/8/2015 6:19:38 AM,
100,0,409,4499.48717948718,4091.28205128205,3981.53846153846,4343.07692307692,4540,4396.41025641026,4318.97435897436,4368.20512820513,4650.25641025641,4108.71794871795,4265.12820512821,4175.89743589744,3992.30769230769,4281.02564102564,1664,1692,53.158,53.1003227233887,0,0,0,0,2/8/2015 6:19:38 AM,
101,0,439,4506.15384615385,4096.41025641026,3975.89743589744,4350.76923076923,4535.38461538462,4397.4358974359,4317.94871794872,4374.8717948718,4658.97435897436,4103.58974358974,4268.20512820513,4182.05128205128,3992.30769230769,4243.07692307692,1665,1692,53.168,53.1003227233887,0,0,0,0,2/8/2015 6:19:38 AM,
102,0,429,4489.74358974359,4090.25641025641,3978.46153846154,4349.23076923077,4541.53846153846,4411.28205128205,4317.94871794872,4368.71794871795,4653.84615384615,4101.53846153846,4261.02564102564,4183.58974358974,3986.66666666667,4218.46153846154,1665,1690,53.176,53.1003227233887,0,0,0,0,2/8/2015 6:19:38 AM,
103,0,455,4474.35897435897,4088.71794871795,3992.82051282051,4340,4552.30769230769,4414.35897435897,4317.94871794872,4357.94871794872,4656.92307692308,4107.69230769231,4252.30769230769,4183.58974358974,3989.23076923077,4218.97435897436,1664,1691,53.184,53.1003227233887,0,0,0,0,2/8/2015 6:19:38 AM,
104,0,409,4488.20512820513,4097.94871794872,3997.4358974359,4349.74358974359,4539.48717948718,4403.07692307692,4317.94871794872,4355.89743589744,4665.12820512821,4110.25641025641,4252.82051282051,4186.66666666667,3993.84615384615,4253.84615384615,1664,1691,53.192,53.1003227233887,0,0,0,0,2/8/2015 6:19:38 AM,
105,0,439,4500.51282051282,4110.76923076923,3984.10256410256,4367.17948717949,4544.10256410256,4405.12820512821,4317.94871794872,4358.97435897436,4661.53846153846,4106.66666666667,4262.05128205128,4181.02564102564,3993.84615384615,4289.23076923077,1664,1694,53.199,53.1003227233887,0,0,0,0,2/8/2015 6:19:38 AM,
106,0,429,4491.28205128205,4110.25641025641,3987.17948717949,4357.94871794872,4568.20512820513,4420.51282051282,4317.94871794872,4367.17948717949,4668.71794871795,4113.84615384615,4270.76923076923,4186.15384615385,4001.53846153846,4260.51282051282,1664,1692,53.205,53.1003227233887,0,0,0,0,2/8/2015 6:19:38 AM,
107,0,455,4487.17948717949,4105.12820512821,4004.61538461539,4348.71794871795,4575.38461538462,4430.25641025641,4317.94871794872,4376.92307692308,4685.12820512821,4133.33333333333,4279.48717948718,4207.69230769231,4013.33333333333,4207.69230769231,1662,1693,53.214,53.1003227233887,0,0,0,0,2/8/2015 6:19:38 AM,
108,0,409,4496.41025641026,4106.15384615385,4008.71794871795,4358.97435897436,4566.15384615385,4425.12820512821,4317.94871794872,4375.38461538462,4673.33333333333,4143.07692307692,4281.02564102564,4211.79487179487,4007.69230769231,4233.84615384615,1664,1692,53.222,53.1941528320313,0,0,0,0,2/8/2015 6:19:38 AM,
109,0,439,4505.64102564103,4107.69230769231,4003.07692307692,4362.05128205128,4570.25641025641,4418.46153846154,4317.94871794872,4370.76923076923,4655.89743589744,4129.74358974359,4267.17948717949,4197.94871794872,3998.97435897436,4306.66666666667,1663,1692,53.231,53.1941528320313,0,0,0,0,2/8/2015 6:19:38 AM,
110,0,429,4517.4358974359,4115.38461538462,3998.97435897436,4351.79487179487,4581.53846153846,4424.61538461538,4317.94871794872,4373.33333333333,4669.74358974359,4124.61538461538,4267.69230769231,4191.28205128205,4015.38461538462,4314.35897435897,1663,1694,53.239,53.1941528320313,0,0,0,0,2/8/2015 6:19:38 AM,
111,0,455,4520.51282051282,4118.46153846154,4005.64102564103,4354.8717948718,4576.92307692308,4437.4358974359,4317.94871794872,4378.97435897436,4688.20512820513,4136.92307692308,4290.25641025641,4201.02564102564,4031.79487179487,4264.61538461538,1663,1693,53.246,53.1941528320313,0,0,0,0,2/8/2015 6:19:38 AM,
112,0,409,4514.35897435897,4113.33333333333,4018.97435897436,4375.89743589744,4565.64102564103,4444.61538461538,4317.94871794872,4390.25641025641,4690.25641025641,4139.48717948718,4300,4217.94871794872,4028.71794871795,4238.46153846154,1663,1693,53.254,53.1941528320313,0,0,0,0,2/8/2015 6:19:38 AM,
113,0,439,4515.89743589744,4120.51282051282,4020.51282051282,4387.69230769231,4553.84615384615,4438.97435897436,4317.94871794872,4399.48717948718,4689.74358974359,4135.89743589744,4287.69230769231,4220.51282051282,4020,4262.05128205128,1663,1693,53.261,53.1941528320313,0,0,0,0,2/8/2015 6:19:38 AM,
114,0,429,4527.17948717949,4123.58974358974,4012.30769230769,4376.92307692308,4550.76923076923,4425.12820512821,4317.94871794872,4394.8717948718,4690.25641025641,4133.84615384615,4276.92307692308,4208.71794871795,4010.76923076923,4288.20512820513,1663,1693,53.268,53.1941528320313,0,0,0,0,2/8/2015 6:19:38 AM,
115,0,455,4526.66666666667,4102.5641025641,4014.8717948718,4362.5641025641,4569.23076923077,4424.10256410256,4317.94871794872,4396.41025641026,4689.23076923077,4130.76923076923,4279.48717948718,4211.28205128205,4011.28205128205,4277.94871794872,1664,1692,53.276,53.1941528320313,0,0,0,0,2/8/2015 6:19:38 AM,
116,0,409,4514.35897435897,4096.41025641026,4014.8717948718,4366.66666666667,4592.30769230769,4434.35897435897,4317.94871794872,4409.74358974359,4685.64102564103,4130.25641025641,4292.82051282051,4216.41025641026,4028.20512820513,4269.74358974359,1664,1694,53.286,53.1941528320313,0,0,0,0,2/8/2015 6:19:38 AM,
117,0,439,4512.30769230769,4113.33333333333,4001.53846153846,4367.17948717949,4569.74358974359,4422.05128205128,4317.94871794872,4411.28205128205,4674.8717948718,4123.58974358974,4298.97435897436,4204.10256410256,4033.84615384615,4281.53846153846,1665,1692,53.292,53.1941528320313,0,0,0,0,2/8/2015 6:19:38 AM,
118,0,429,4510.76923076923,4104.10256410256,3994.35897435898,4356.41025641026,4533.33333333333,4397.94871794872,4317.94871794872,4398.97435897436,4664.61538461539,4115.38461538462,4284.61538461538,4197.4358974359,4014.35897435898,4244.61538461538,1664,1693,53.301,53.1941528320313,0,0,0,0,2/8/2015 6:19:38 AM,
119,0,455,4497.94871794872,4088.71794871795,4004.10256410256,4358.97435897436,4541.53846153846,4401.02564102564,4317.94871794872,4396.41025641026,4662.5641025641,4115.38461538462,4275.89743589744,4203.58974358974,4001.53846153846,4214.35897435897,1665,1693,53.309,53.1941528320313,0,0,0,0,2/8/2015 6:19:38 AM,
120,0,409,4503.07692307692,4094.8717948718,4016.92307692308,4362.5641025641,4554.8717948718,4418.46153846154,4317.94871794872,4400.51282051282,4662.5641025641,4115.89743589744,4277.4358974359,4205.64102564103,4002.05128205128,4256.41025641026,1665,1693,53.316,53.1941528320313,0,0,0,0,2/8/2015 6:19:38 AM,
121,0,439,4518.46153846154,4083.58974358974,4009.74358974359,4354.8717948718,4555.38461538462,4405.12820512821,4317.94871794872,4396.92307692308,4660.51282051282,4113.84615384615,4275.38461538462,4201.53846153846,3998.97435897436,4276.41025641026,1665,1695,53.324,53.1941528320313,0,0,0,0,2/8/2015 6:19:38 AM,
122,0,429,4512.82051282051,4062.05128205128,3989.74358974359,4358.97435897436,4564.61538461538,4384.10256410256,4317.94871794872,4394.35897435897,4659.48717948718,4117.4358974359,4281.02564102564,4190.25641025641,4009.23076923077,4258.46153846154,1666,1693,53.332,53.1941528320313,0,0,0,0,2/8/2015 6:19:38 AM,
123,0,455,4505.12820512821,4062.05128205128,3987.17948717949,4365.64102564103,4551.28205128205,4396.41025641026,4318.46153846154,4399.48717948718,4661.02564102564,4112.30769230769,4289.23076923077,4186.15384615385,4018.97435897436,4240.51282051282,1664,1694,53.339,53.1941528320313,0,0,0,0,2/8/2015 6:19:38 AM,
124,0,409,4517.4358974359,4062.5641025641,3995.38461538462,4352.82051282051,4530.25641025641,4416.41025641026,4317.94871794872,4399.48717948718,4660.51282051282,4107.69230769231,4276.92307692308,4197.94871794872,4006.66666666667,4222.05128205128,1664,1694,53.347,53.3192596435547,0,0,0,0,2/8/2015 6:19:38 AM,
125,0,439,4526.66666666667,4055.89743589744,3997.4358974359,4349.74358974359,4550.76923076923,4421.53846153846,4317.94871794872,4395.38461538462,4661.53846153846,4118.46153846154,4276.41025641026,4205.64102564103,4004.10256410256,4242.5641025641,1663,1694,53.355,53.3192596435547,0,0,0,0,2/8/2015 6:19:38 AM,
126,0,429,4520,4057.94871794872,4003.58974358974,4366.66666666667,4567.17948717949,4422.5641025641,4318.97435897436,4401.02564102564,4670.76923076923,4124.10256410256,4300.51282051282,4208.20512820513,4017.94871794872,4287.69230769231,1664,1694,53.363,53.3192596435547,0,0,0,0,2/8/2015 6:19:38 AM,
127,0,455,4506.66666666667,4061.02564102564,4005.64102564103,4369.23076923077,4554.35897435897,4429.23076923077,4315.89743589744,4410.25641025641,4681.02564102564,4120,4307.17948717949,4204.61538461538,4026.15384615385,4281.02564102564,1662,1695,53.371,53.3192596435547,0,0,0,0,2/8/2015 6:19:38 AM,
128,0,409,4500.51282051282,4060,3998.97435897436,4363.58974358974,4555.89743589744,4427.69230769231,4312.82051282051,4406.15384615385,4683.07692307692,4122.5641025641,4295.38461538462,4196.41025641026,4031.79487179487,4236.92307692308,1664,1694,53.378,53.3192596435547,0,0,0,0,2/8/2015 6:19:38 AM,
0,0,460,4515.89743589744,4058.97435897436,4001.02564102564,4367.69230769231,4558.97435897436,4415.89743589744,4315.89743589744,4398.46153846154,4673.33333333333,4125.12820512821,4290.76923076923,4205.12820512821,4029.74358974359,4215.89743589744,1663,1694,53.386,53.3192596435547,0,0,0,0,2/8/2015 6:19:38 AM,
1,0,442,4532.30769230769,4048.20512820513,4005.64102564103,4367.17948717949,4545.12820512821,4415.38461538462,4318.97435897436,4396.92307692308,4664.10256410256,4124.61538461538,4295.38461538462,4214.35897435897,4017.94871794872,4234.35897435897,1664,1694,53.394,53.3192596435547,0,0,0,0,2/8/2015 6:19:38 AM,
2,0,460,4516.41025641026,4036.41025641026,4009.74358974359,4360,4553.33333333333,4426.15384615385,4317.94871794872,4397.4358974359,4666.66666666667,4123.58974358974,4295.89743589744,4203.58974358974,4016.41025641026,4269.23076923077,1663,1693,53.402,53.3192596435547,0,0,0,0,2/8/2015 6:19:38 AM,
3,0,493,4499.48717948718,4035.89743589744,4013.33333333333,4367.17948717949,4574.8717948718,4431.28205128205,4317.94871794872,4400,4673.84615384615,4123.07692307692,4287.17948717949,4200,4021.02564102564,4262.5641025641,1663,1693,53.409,53.3192596435547,0,0,0,0,2/8/2015 6:19:38 AM,
4,0,482,4503.58974358974,4042.05128205128,4005.12820512821,4370.25641025641,4557.94871794872,4424.61538461538,4318.97435897436,4405.64102564103,4675.38461538462,4122.5641025641,4283.58974358974,4205.64102564103,4016.41025641026,4230.76923076923,1664,1691,53.417,53.3192596435547,0,0,0,0,2/8/2015 6:19:38 AM,
5,0,467,4506.15384615385,4041.53846153846,3994.35897435898,4358.46153846154,4535.38461538462,4423.07692307692,4318.97435897436,4415.38461538462,4675.38461538462,4120.51282051282,4290.25641025641,4198.97435897436,4010.25641025641,4227.17948717949,1663,1692,53.424,53.3192596435547,0,0,0,0,2/8/2015 6:19:38 AM,
6,0,482,4505.64102564103,4031.28205128205,3999.48717948718,4357.4358974359,4548.20512820513,4425.12820512821,4317.4358974359,4425.64102564103,4679.48717948718,4117.4358974359,4298.97435897436,4205.12820512821,4003.58974358974,4209.74358974359,1664,1692,53.432,53.3192596435547,0,0,0,0,2/8/2015 6:19:38 AM,
7,0,0,4507.69230769231,4024.10256410256,4008.71794871795,4363.58974358974,4558.97435897436,4427.69230769231,4312.30769230769,4427.69230769231,4680,4120.51282051282,4294.8717948718,4218.46153846154,4006.15384615385,4192.30769230769,1663,1694,53.44,53.3192596435547,0,0,0,0,2/8/2015 6:19:38 AM,
8,0,407,4505.12820512821,4028.71794871795,4004.10256410256,4356.41025641026,4552.30769230769,4425.64102564103,4313.33333333333,4418.97435897436,4677.4358974359,4126.66666666667,4283.58974358974,4207.69230769231,4017.94871794872,4235.89743589744,1664,1694,53.448,53.3192596435547,0,0,0,0,2/8/2015 6:19:38 AM,
9,0,427,4507.17948717949,4034.8717948718,4000,4353.33333333333,4554.35897435897,4417.4358974359,4318.97435897436,4412.82051282051,4675.38461538462,4123.58974358974,4289.74358974359,4193.84615384615,4022.05128205128,4286.66666666667,1664,1694,53.456,53.3192596435547,0,0,0,0,2/8/2015 6:19:38 AM,
10,0,429,4511.79487179487,4035.38461538462,4006.66666666667,4362.05128205128,4554.35897435897,4418.97435897436,4318.46153846154,4420,4677.4358974359,4117.94871794872,4306.15384615385,4202.05128205128,4018.97435897436,4265.12820512821,1665,1692,53.463,53.3192596435547,0,0,0,0,2/8/2015 6:19:38 AM,
11,0,455,4505.12820512821,4035.89743589744,4006.66666666667,4365.12820512821,4549.23076923077,4430.25641025641,4316.92307692308,4424.61538461538,4678.97435897436,4120,4295.38461538462,4204.10256410256,4013.84615384615,4215.89743589744,1664,1691,53.471,53.4443664550781,0,0,0,0,2/8/2015 6:19:38 AM,
12,0,409,4512.82051282051,4044.61538461539,4001.02564102564,4364.61538461538,4566.66666666667,4441.02564102564,4317.94871794872,4422.5641025641,4678.46153846154,4120,4269.74358974359,4195.89743589744,4009.74358974359,4219.48717948718,1664,1691,53.479,53.4443664550781,0,0,0,0,2/8/2015 6:19:38 AM,
13,0,439,4524.10256410256,4053.84615384615,4012.82051282051,4369.23076923077,4566.66666666667,4443.58974358974,4317.4358974359,4424.61538461538,4682.05128205128,4113.33333333333,4276.92307692308,4202.5641025641,4012.30769230769,4233.33333333333,1664,1691,53.488,53.4443664550781,0,0,0,0,2/8/2015 6:19:38 AM,
14,0,429,4511.28205128205,4053.33333333333,4029.74358974359,4374.35897435897,4545.64102564103,4444.10256410256,4317.94871794872,4432.30769230769,4691.28205128205,4119.48717948718,4302.05128205128,4214.35897435897,4018.46153846154,4229.23076923077,1663,1691,53.495,53.4443664550781,0,0,0,0,2/8/2015 6:19:38 AM,
15,0,455,4512.30769230769,4060,4015.38461538462,4385.12820512821,4571.79487179487,4454.8717948718,4319.48717948718,4437.4358974359,4703.07692307692,4140,4308.20512820513,4201.02564102564,4025.12820512821,4254.8717948718,1665,1690,53.503,53.4443664550781,0,0,0,0,2/8/2015 6:19:38 AM,
16,0,0,4534.35897435897,4065.12820512821,3993.84615384615,4380.51282051282,4602.5641025641,4466.66666666667,4318.46153846154,4434.35897435897,4705.12820512821,4143.58974358974,4297.94871794872,4181.53846153846,4024.10256410256,4274.35897435897,1664,1693,53.51,53.4443664550781,0,0,0,0,2/8/2015 6:19:38 AM,
17,0,0,4528.71794871795,4050.76923076923,4002.05128205128,4358.97435897436,4564.61538461538,4462.5641025641,4317.4358974359,4428.20512820513,4696.92307692308,4123.07692307692,4286.15384615385,4190.25641025641,4007.17948717949,4244.10256410256,1665,1694,53.519,53.4443664550781,0,0,0,0,2/8/2015 6:19:38 AM,
18,0,0,4515.38461538462,4047.17948717949,4017.94871794872,4355.38461538462,4537.94871794872,4454.8717948718,4318.46153846154,4426.66666666667,4693.33333333333,4112.82051282051,4291.28205128205,4207.17948717949,4005.12820512821,4224.61538461538,1664,1695,53.526,53.4443664550781,0,0,0,0,2/8/2015 6:19:38 AM,
19,0,0,4523.07692307692,4058.97435897436,4014.8717948718,4373.84615384615,4566.66666666667,4459.48717948718,4317.94871794872,4428.20512820513,4693.33333333333,4121.02564102564,4305.64102564103,4203.58974358974,4030.76923076923,4257.94871794872,1665,1696,53.534,53.4443664550781,0,0,0,0,2/8/2015 6:19:38 AM,
20,0,0,4525.12820512821,4058.97435897436,4010.76923076923,4387.17948717949,4566.66666666667,4463.58974358974,4317.94871794872,4421.02564102564,4691.79487179487,4124.61538461538,4313.33333333333,4194.35897435897,4041.02564102564,4275.89743589744,1665,1696,53.542,53.4443664550781,0,0,0,0,2/8/2015 6:19:38 AM,
21,0,0,4519.48717948718,4057.4358974359,4016.92307692308,4382.5641025641,4551.28205128205,4456.41025641026,4317.94871794872,4411.28205128205,4690.76923076923,4129.23076923077,4312.82051282051,4197.4358974359,4027.69230769231,4238.46153846154,1664,1698,53.549,53.4443664550781,0,0,0,0,2/8/2015 6:19:38 AM,
22,0,0,4523.07692307692,4061.53846153846,4024.61538461539,4370.25641025641,4572.30769230769,4450.76923076923,4317.94871794872,4408.20512820513,4689.23076923077,4131.79487179487,4305.64102564103,4210.25641025641,4024.61538461539,4210.76923076923,1664,1695,53.559,53.4443664550781,0,0,0,0,2/8/2015 6:19:38 AM,
23,0,0,4526.66666666667,4056.92307692308,4020,4362.05128205128,4581.53846153846,4457.4358974359,4318.46153846154,4410.25641025641,4686.15384615385,4127.17948717949,4293.33333333333,4213.84615384615,4025.64102564103,4244.61538461538,1664,1694,53.567,53.4443664550781,0,0,0,0,2/8/2015 6:19:38 AM,
24,0,0,4523.07692307692,4056.92307692308,4009.23076923077,4369.23076923077,4558.97435897436,4466.66666666667,4318.46153846154,4415.89743589744,4691.28205128205,4134.35897435897,4288.71794871795,4203.58974358974,4016.92307692308,4292.30769230769,1663,1694,53.575,53.4443664550781,0,0,0,0,2/8/2015 6:19:38 AM,
25,0,0,4513.33333333333,4069.23076923077,4013.33333333333,4380.51282051282,4544.61538461538,4466.15384615385,4317.94871794872,4420.51282051282,4698.46153846154,4138.46153846154,4299.48717948718,4194.35897435897,4022.05128205128,4280.51282051282,1664,1693,53.583,53.4443664550781,0,0,0,0,2/8/2015 6:19:38 AM,
26,0,0,4502.5641025641,4064.61538461539,4022.5641025641,4371.28205128205,4536.41025641026,4462.05128205128,4318.46153846154,4417.94871794872,4694.35897435897,4126.66666666667,4306.66666666667,4206.66666666667,4032.82051282051,4232.30769230769,1663,1693,53.589,53.4443664550781,0,0,0,0,2/8/2015 6:19:38 AM,
27,0,0,4508.20512820513,4049.74358974359,4022.5641025641,4358.46153846154,4524.61538461538,4463.07692307692,4318.46153846154,4413.84615384615,4687.69230769231,4117.94871794872,4301.02564102564,4218.97435897436,4026.66666666667,4226.66666666667,1663,1693,53.597,53.5694732666016,0,0,0,0,2/8/2015 6:19:38 AM,
28,0,0,4522.05128205128,4045.64102564103,4021.53846153846,4361.02564102564,4515.38461538462,4456.41025641026,4314.8717948718,4414.8717948718,4684.61538461539,4109.23076923077,4288.20512820513,4209.23076923077,4009.74358974359,4252.30769230769,1663,1694,53.604,53.5694732666016,0,0,0,0,2/8/2015 6:19:38 AM,
29,0,0,4514.35897435897,4042.5641025641,4016.92307692308,4362.5641025641,4506.66666666667,4433.84615384615,4311.79487179487,4409.74358974359,4678.97435897436,4094.35897435898,4278.97435897436,4195.89743589744,3995.38461538462,4244.10256410256,1664,1695,53.612,53.5694732666016,0,0,0,0,2/8/2015 6:19:38 AM,
30,0,0,4491.79487179487,4034.35897435898,3995.89743589744,4349.74358974359,4515.89743589744,4420.51282051282,4312.30769230769,4393.84615384615,4673.84615384615,4100,4282.5641025641,4188.71794871795,3989.23076923077,4227.69230769231,1662,1696,53.62,53.5694732666016,0,0,0,0,2/8/2015 6:19:38 AM,
31,0,0,4481.53846153846,4032.82051282051,3983.07692307692,4348.20512820513,4526.66666666667,4432.30769230769,4313.33333333333,4384.61538461538,4672.30769230769,4115.38461538462,4286.15384615385,4181.02564102564,3992.30769230769,4267.69230769231,1663,1696,53.629,53.6007499694824,0,0,0,0,2/8/2015 6:19:38 AM,
32,0,0,4491.79487179487,4042.5641025641,3994.8717948718,4352.30769230769,4520.51282051282,4442.05128205128,4313.33333333333,4383.58974358974,4663.07692307692,4110.25641025641,4286.15384615385,4173.84615384615,4002.05128205128,4303.07692307692,1664,1695,53.635,53.6007499694824,0,0,0,0,2/8/2015 6:19:38 AM,
33,0,0,4503.58974358974,4046.15384615385,4005.64102564103,4345.64102564103,4531.28205128205,4432.82051282051,4313.33333333333,4382.05128205128,4656.92307692308,4104.61538461538,4282.5641025641,4186.15384615385,4002.05128205128,4261.53846153846,1663,1695,53.643,53.6007499694824,0,0,0,0,2/8/2015 6:19:38 AM,
34,0,0,4510.25641025641,4040,4006.15384615385,4344.61538461538,4554.8717948718,4422.5641025641,4312.30769230769,4382.05128205128,4669.74358974359,4110.76923076923,4280,4203.58974358974,3992.82051282051,4224.10256410256,1664,1692,53.651,53.6007499694824,0,0,0,0,2/8/2015 6:19:38 AM,
35,0,0,4510.76923076923,4034.8717948718,4002.5641025641,4351.28205128205,4533.84615384615,4418.46153846154,4312.82051282051,4383.58974358974,4672.30769230769,4120,4282.05128205128,4194.35897435897,4000,4245.64102564103,1663,1693,53.66,53.6007499694824,0,0,0,0,2/8/2015 6:19:38 AM,
36,0,0,4502.5641025641,4035.38461538462,3995.38461538462,4353.84615384615,4501.02564102564,4417.4358974359,4312.82051282051,4385.12820512821,4658.97435897436,4132.30769230769,4288.20512820513,4170.25641025641,4012.30769230769,4280.51282051282,1663,1691,53.668,53.6007499694824,0,0,0,0,2/8/2015 6:19:38 AM,
37,0,0,4504.10256410256,4039.48717948718,3990.25641025641,4349.23076923077,4519.48717948718,4423.07692307692,4311.79487179487,4388.20512820513,4668.20512820513,4136.41025641026,4292.82051282051,4167.17948717949,4005.64102564103,4291.79487179487,1663,1692,53.677,53.6007499694824,0,0,0,0,2/8/2015 6:19:38 AM,
38,0,0,4516.41025641026,4050.25641025641,3991.79487179487,4347.17948717949,4543.58974358974,4430.76923076923,4314.8717948718,4391.79487179487,4690.76923076923,4124.10256410256,4290.25641025641,4186.66666666667,3998.46153846154,4271.79487179487,1663,1693,53.684,53.6007499694824,0,0,0,0,2/8/2015 6:19:38 AM,
39,0,0,4510.76923076923,4058.46153846154,3989.74358974359,4356.92307692308,4542.5641025641,4424.61538461538,4319.48717948718,4393.33333333333,4690.25641025641,4110.25641025641,4288.20512820513,4183.58974358974,4000,4235.89743589744,1662,1692,53.692,53.6007499694824,0,0,0,0,2/8/2015 6:19:38 AM,
40,0,0,4488.71794871795,4051.79487179487,3987.69230769231,4354.8717948718,4531.79487179487,4409.23076923077,4320.51282051282,4396.41025641026,4682.5641025641,4103.58974358974,4278.46153846154,4167.17948717949,3989.74358974359,4200,1662,1692,53.7,53.6007499694824,0,0,0,0,2/8/2015 6:19:38 AM,
41,0,0,4486.66666666667,4049.74358974359,3998.46153846154,4341.02564102564,4520.51282051282,4411.28205128205,4318.46153846154,4398.46153846154,4687.17948717949,4099.48717948718,4268.71794871795,4174.35897435897,3986.15384615385,4217.94871794872,1661,1692,53.708,53.6007499694824,0,0,0,0,2/8/2015 6:19:38 AM,
42,0,0,4510.76923076923,4061.53846153846,4005.64102564103,4352.30769230769,4523.58974358974,4432.30769230769,4318.97435897436,4393.33333333333,4685.64102564103,4110.25641025641,4275.38461538462,4182.05128205128,4007.17948717949,4277.4358974359,1662,1693,53.716,53.6007499694824,0,0,0,0,2/8/2015 6:19:38 AM,
43,0,0,4515.38461538462,4060,3999.48717948718,4370.25641025641,4536.92307692308,4446.66666666667,4320,4390.76923076923,4674.35897435897,4118.46153846154,4279.48717948718,4177.4358974359,4008.20512820513,4271.79487179487,1662,1691,53.723,53.694580078125,0,0,0,0,2/8/2015 6:19:38 AM,
44,0,0,4496.41025641026,4052.30769230769,3997.94871794872,4356.92307692308,4538.97435897436,4443.58974358974,4319.48717948718,4395.89743589744,4667.69230769231,4106.15384615385,4280,4183.07692307692,3992.82051282051,4229.23076923077,1661,1692,53.731,53.694580078125,0,0,0,0,2/8/2015 6:19:38 AM,
45,0,0,4496.92307692308,4068.71794871795,4003.58974358974,4352.82051282051,4538.46153846154,4440,4318.97435897436,4405.12820512821,4672.82051282051,4106.66666666667,4298.46153846154,4190.25641025641,4007.17948717949,4258.97435897436,1663,1689,53.739,53.694580078125,0,0,0,0,2/8/2015 6:19:38 AM,
46,0,0,4511.79487179487,4081.53846153846,4008.71794871795,4371.79487179487,4542.5641025641,4443.58974358974,4318.46153846154,4415.89743589744,4685.12820512821,4125.12820512821,4304.61538461538,4191.28205128205,4025.12820512821,4269.74358974359,1663,1690,53.747,53.694580078125,0,0,0,0,2/8/2015 6:19:38 AM,
47,0,0,4509.74358974359,4063.58974358974,4012.82051282051,4371.28205128205,4536.41025641026,4445.12820512821,4319.48717948718,4429.23076923077,4698.46153846154,4123.07692307692,4281.02564102564,4200.51282051282,4015.38461538462,4220.51282051282,1663,1689,53.755,53.694580078125,0,0,0,0,2/8/2015 6:19:38 AM,
48,0,0,4512.82051282051,4058.97435897436,4011.28205128205,4364.61538461538,4551.28205128205,4443.07692307692,4318.46153846154,4434.35897435897,4704.61538461539,4113.84615384615,4280.51282051282,4198.97435897436,4011.79487179487,4248.71794871795,1663,1690,53.763,53.694580078125,0,0,0,0,2/8/2015 6:19:38 AM,
49,0,0,4518.46153846154,4071.28205128205,4000.51282051282,4364.10256410256,4574.8717948718,4440.51282051282,4316.41025641026,4430.76923076923,4705.12820512821,4124.10256410256,4297.94871794872,4180,4021.02564102564,4314.8717948718,1664,1692,53.77,53.694580078125,0,0,0,0,2/8/2015 6:19:38 AM,
50,0,0,4491.28205128205,4065.64102564103,3986.15384615385,4347.69230769231,4550.76923076923,4444.61538461538,4316.92307692308,4433.33333333333,4707.17948717949,4128.20512820513,4286.66666666667,4176.92307692308,4008.71794871795,4260.51282051282,1664,1691,53.778,53.694580078125,0,0,0,0,2/8/2015 6:19:38 AM,
51,0,0,4477.4358974359,4051.79487179487,3990.76923076923,4341.02564102564,4512.82051282051,4444.61538461538,4319.48717948718,4434.8717948718,4706.66666666667,4116.41025641026,4274.35897435897,4190.25641025641,3987.17948717949,4178.97435897436,1664,1692,53.786,53.694580078125,0,0,0,0,2/8/2015 6:19:38 AM,
52,0,0,4509.74358974359,4050.25641025641,4004.61538461539,4355.38461538462,4514.8717948718,4439.48717948718,4318.97435897436,4429.23076923077,4704.10256410256,4114.35897435897,4277.94871794872,4187.69230769231,3988.20512820513,4241.02564102564,1665,1692,53.794,53.694580078125,0,0,0,0,2/8/2015 6:19:38 AM,
53,0,0,4516.92307692308,4053.84615384615,4000.51282051282,4363.07692307692,4548.71794871795,4449.23076923077,4317.94871794872,4425.64102564103,4702.5641025641,4126.15384615385,4284.10256410256,4176.92307692308,4006.66666666667,4320.51282051282,1665,1692,53.802,53.694580078125,0,0,0,0,2/8/2015 6:19:38 AM,
54,0,0,4486.15384615385,4058.46153846154,3990.25641025641,4355.38461538462,4570.76923076923,4454.8717948718,4317.94871794872,4419.48717948718,4693.33333333333,4135.89743589744,4297.94871794872,4175.89743589744,4018.46153846154,4282.5641025641,1666,1690,53.809,53.694580078125,0,0,0,0,2/8/2015 6:19:38 AM,
55,0,0,4485.12820512821,4060.51282051282,4000.51282051282,4348.71794871795,4550.25641025641,4441.02564102564,4318.46153846154,4413.33333333333,4683.07692307692,4138.46153846154,4294.8717948718,4188.20512820513,4009.23076923077,4224.61538461538,1666,1690,53.817,53.694580078125,0,0,0,0,2/8/2015 6:19:38 AM,
56,0,0,4518.97435897436,4056.92307692308,4011.79487179487,4353.84615384615,4525.12820512821,4433.84615384615,4317.94871794872,4420,4689.23076923077,4130.25641025641,4273.33333333333,4202.05128205128,3996.92307692308,4247.17948717949,1668,1689,53.825,53.694580078125,0,0,0,0,2/8/2015 6:19:38 AM,
57,0,0,4531.79487179487,4062.5641025641,3999.48717948718,4363.58974358974,4550.25641025641,4443.07692307692,4317.94871794872,4429.74358974359,4709.23076923077,4127.17948717949,4282.5641025641,4195.89743589744,4013.84615384615,4305.64102564103,1666,1691,53.833,53.694580078125,0,0,0,0,2/8/2015 6:19:38 AM,
58,0,0,4508.20512820513,4068.20512820513,3987.17948717949,4359.48717948718,4578.97435897436,4451.79487179487,4317.94871794872,4432.82051282051,4717.4358974359,4135.38461538462,4304.61538461538,4187.17948717949,4033.33333333333,4292.30769230769,1668,1691,53.841,53.694580078125,0,0,0,0,2/8/2015 6:19:38 AM,
59,0,0,4485.12820512821,4062.5641025641,3996.92307692308,4350.76923076923,4559.48717948718,4455.89743589744,4317.94871794872,4435.38461538462,4703.58974358974,4132.82051282051,4290.25641025641,4189.74358974359,4018.46153846154,4244.10256410256,1666,1690,53.849,53.8196907043457,0,0,0,0,2/8/2015 6:19:38 AM,
60,0,0,4485.64102564103,4070.25641025641,4006.15384615385,4362.05128205128,4536.92307692308,4461.53846153846,4317.94871794872,4432.82051282051,4693.33333333333,4120.51282051282,4274.35897435897,4191.79487179487,4001.53846153846,4252.30769230769,1668,1692,53.856,53.8196907043457,0,0,0,0,2/8/2015 6:19:38 AM,
61,0,0,4489.74358974359,4075.38461538462,3995.38461538462,4365.64102564103,4538.46153846154,4473.33333333333,4317.94871794872,4427.69230769231,4700,4118.97435897436,4288.71794871795,4183.07692307692,4007.69230769231,4273.84615384615,1667,1692,53.864,53.8196907043457,0,0,0,0,2/8/2015 6:19:38 AM,
62,0,0,4484.10256410256,4054.8717948718,3991.79487179487,4345.64102564103,4538.46153846154,4476.92307692308,4318.46153846154,4424.10256410256,4707.69230769231,4125.64102564103,4293.84615384615,4180,4012.30769230769,4244.61538461538,1668,1694,53.872,53.8196907043457,0,0,0,0,2/8/2015 6:19:38 AM,
63,0,0,4484.10256410256,4047.69230769231,4003.07692307692,4344.10256410256,4533.33333333333,4458.97435897436,4318.46153846154,4412.82051282051,4703.58974358974,4124.10256410256,4280.51282051282,4194.8717948718,4004.10256410256,4213.84615384615,1668,1692,53.88,53.8196907043457,0,0,0,0,2/8/2015 6:19:38 AM,
64,0,460,4490.76923076923,4071.28205128205,4004.61538461539,4358.97435897436,4533.33333333333,4450.25641025641,4317.94871794872,4401.02564102564,4698.97435897436,4120.51282051282,4279.48717948718,4202.05128205128,4000.51282051282,4226.15384615385,1668,1693,53.888,53.8196907043457,0,0,0,0,2/8/2015 6:19:38 AM,
65,0,442,4501.02564102564,4078.97435897436,4000.51282051282,4358.46153846154,4537.4358974359,4461.02564102564,4318.97435897436,4400.51282051282,4691.79487179487,4129.74358974359,4278.97435897436,4192.82051282051,4004.61538461539,4245.64102564103,1669,1692,53.896,53.8196907043457,0,0,0,0,2/8/2015 6:19:38 AM,
66,0,462,4514.35897435897,4070.76923076923,4003.07692307692,4356.92307692308,4534.35897435897,4465.12820512821,4318.46153846154,4406.66666666667,4693.33333333333,4137.94871794872,4271.79487179487,4184.10256410256,4005.12820512821,4256.41025641026,1668,1693,53.903,53.8196907043457,0,0,0,0,2/8/2015 6:19:38 AM,
67,0,493,4514.35897435897,4075.38461538462,4002.05128205128,4363.07692307692,4528.71794871795,4466.66666666667,4313.84615384615,4413.33333333333,4703.58974358974,4132.82051282051,4281.53846153846,4184.61538461538,4003.07692307692,4263.07692307692,1668,1692,53.911,53.8196907043457,0,0,0,0,2/8/2015 6:19:39 AM,
68,0,482,4507.17948717949,4076.41025641026,4001.53846153846,4362.5641025641,4538.97435897436,4471.79487179487,4311.79487179487,4415.89743589744,4698.46153846154,4132.82051282051,4295.38461538462,4182.05128205128,4008.20512820513,4282.05128205128,1666,1692,53.919,53.8196907043457,0,0,0,0,2/8/2015 6:19:39 AM,
69,0,467,4505.64102564103,4075.89743589744,4009.23076923077,4366.66666666667,4553.84615384615,4474.8717948718,4312.30769230769,4411.79487179487,4691.79487179487,4138.97435897436,4285.64102564103,4181.53846153846,4014.8717948718,4272.82051282051,1668,1692,53.927,53.8196907043457,0,0,0,0,2/8/2015 6:19:39 AM,
70,0,482,4498.97435897436,4084.61538461539,4008.20512820513,4375.89743589744,4550.76923076923,4473.84615384615,4311.79487179487,4410.25641025641,4699.48717948718,4132.82051282051,4272.30769230769,4184.10256410256,4008.71794871795,4224.10256410256,1667,1692,53.935,53.8196907043457,0,0,0,0,2/8/2015 6:19:39 AM,
71,0,0,4487.17948717949,4081.02564102564,4004.10256410256,4363.07692307692,4528.20512820513,4467.69230769231,4311.79487179487,4412.82051282051,4702.5641025641,4116.92307692308,4274.8717948718,4186.66666666667,3994.8717948718,4211.28205128205,1666,1693,53.941,53.8196907043457,0,0,0,0,2/8/2015 6:19:39 AM,
72,0,407,4496.92307692308,4061.53846153846,4012.30769230769,4344.10256410256,4504.61538461538,4457.4358974359,4313.33333333333,4406.66666666667,4688.20512820513,4105.64102564103,4278.46153846154,4201.02564102564,3986.66666666667,4230.76923076923,1667,1692,53.95,53.8196907043457,0,0,0,0,2/8/2015 6:19:39 AM,
73,0,427,4521.53846153846,4066.15384615385,4005.64102564103,4352.82051282051,4510.25641025641,4447.69230769231,4312.82051282051,4391.28205128205,4679.48717948718,4113.33333333333,4283.07692307692,4197.94871794872,3992.30769230769,4254.35897435897,1666,1693,53.958,53.8196907043457,0,0,0,0,2/8/2015 6:19:39 AM,
74,0,429,4530.25641025641,4094.35897435898,3986.66666666667,4369.74358974359,4536.41025641026,4448.20512820513,4311.79487179487,4381.53846153846,4687.69230769231,4132.82051282051,4293.33333333333,4173.84615384615,4011.79487179487,4282.5641025641,1667,1692,53.966,53.8196907043457,0,0,0,0,2/8/2015 6:19:39 AM,
75,0,455,4516.41025641026,4094.35897435898,3991.79487179487,4366.15384615385,4532.82051282051,4457.94871794872,4312.30769230769,4383.07692307692,4688.71794871795,4135.89743589744,4296.92307692308,4173.33333333333,4017.94871794872,4259.48717948718,1666,1692,53.974,53.9447975158691,0,0,0,0,2/8/2015 6:19:39 AM,
76,0,409,4501.02564102564,4070.25641025641,4008.71794871795,4355.38461538462,4510.76923076923,4461.53846153846,4312.30769230769,4387.69230769231,4678.46153846154,4121.53846153846,4286.66666666667,4190.76923076923,4000.51282051282,4220.51282051282,1667,1692,53.982,53.9447975158691,0,0,0,0,2/8/2015 6:19:39 AM,
77,0,439,4502.5641025641,4072.30769230769,4004.10256410256,4355.89743589744,4512.30769230769,4456.92307692308,4312.30769230769,4389.23076923077,4676.41025641026,4112.30769230769,4277.4358974359,4192.30769230769,3995.89743589744,4240.51282051282,1665,1692,53.989,53.9447975158691,0,0,0,0,2/8/2015 6:19:39 AM,
78,0,429,4508.20512820513,4091.28205128205,3994.35897435898,4358.46153846154,4528.71794871795,4458.46153846154,4311.79487179487,4388.20512820513,4686.66666666667,4112.30769230769,4278.97435897436,4185.64102564103,4009.23076923077,4253.33333333333,1665,1692,53.996,53.9447975158691,0,0,0,0,2/8/2015 6:19:39 AM,
79,0,455,4506.66666666667,4094.35897435898,3990.25641025641,4358.97435897436,4527.17948717949,4458.97435897436,4312.30769230769,4377.4358974359,4689.23076923077,4114.35897435897,4281.53846153846,4184.10256410256,4005.64102564103,4227.17948717949,1666,1692,54.004,53.9447975158691,0,0,0,0,2/8/2015 6:19:39 AM,
80,0,409,4508.71794871795,4089.74358974359,3988.71794871795,4365.64102564103,4506.66666666667,4446.66666666667,4311.79487179487,4361.53846153846,4683.58974358974,4123.58974358974,4281.53846153846,4181.02564102564,3989.74358974359,4224.10256410256,1666,1693,54.012,53.9447975158691,0,0,0,0,2/8/2015 6:19:39 AM,
81,0,439,4507.17948717949,4085.64102564103,4004.61538461539,4367.17948717949,4512.30769230769,4438.97435897436,4309.23076923077,4360,4687.69230769231,4137.94871794872,4286.66666666667,4183.58974358974,3995.89743589744,4240.51282051282,1666,1693,54.02,53.9447975158691,0,0,0,0,2/8/2015 6:19:39 AM,
82,0,429,4505.12820512821,4090.25641025641,4009.74358974359,4358.46153846154,4544.61538461538,4449.23076923077,4307.17948717949,4366.15384615385,4700,4143.07692307692,4291.79487179487,4185.64102564103,4014.35897435898,4236.41025641026,1665,1693,54.028,53.9447975158691,0,0,0,0,2/8/2015 6:19:39 AM,
83,0,455,4509.23076923077,4105.64102564103,3993.84615384615,4357.94871794872,4535.89743589744,4461.53846153846,4308.20512820513,4353.33333333333,4703.07692307692,4135.89743589744,4285.12820512821,4186.15384615385,4015.89743589744,4222.05128205128,1665,1693,54.034,53.9447975158691,0,0,0,0,2/8/2015 6:19:39 AM,
84,0,409,4504.10256410256,4112.82051282051,3993.33333333333,4367.69230769231,4500.51282051282,4458.46153846154,4308.71794871795,4337.94871794872,4689.74358974359,4134.35897435897,4275.89743589744,4188.20512820513,4004.61538461539,4229.23076923077,1665,1692,54.042,53.9447975158691,0,0,0,0,2/8/2015 6:19:39 AM,
85,0,439,4502.5641025641,4107.17948717949,4006.15384615385,4367.69230769231,4510.25641025641,4455.38461538462,4306.66666666667,4348.71794871795,4682.5641025641,4138.97435897436,4284.10256410256,4189.74358974359,3996.41025641026,4250.76923076923,1664,1692,54.05,53.9447975158691,0,0,0,0,2/8/2015 6:19:39 AM,
86,0,429,4520,4106.66666666667,4006.66666666667,4363.07692307692,4547.17948717949,4462.5641025641,4310.25641025641,4363.58974358974,4698.46153846154,4135.38461538462,4298.97435897436,4186.15384615385,4006.15384615385,4267.69230769231,1665,1691,54.058,53.9447975158691,0,0,0,0,2/8/2015 6:19:39 AM,
87,0,455,4524.10256410256,4114.8717948718,4002.5641025641,4369.23076923077,4561.02564102564,4463.07692307692,4316.41025641026,4358.97435897436,4709.74358974359,4138.46153846154,4295.89743589744,4182.5641025641,4021.02564102564,4263.58974358974,1663,1691,54.066,53.9447975158691,0,0,0,0,2/8/2015 6:19:39 AM,
88,0,409,4508.71794871795,4115.89743589744,4006.66666666667,4370.25641025641,4542.05128205128,4451.28205128205,4314.8717948718,4353.33333333333,4700.51282051282,4145.64102564103,4277.94871794872,4191.79487179487,4015.89743589744,4241.02564102564,1665,1692,54.073,53.9447975158691,0,0,0,0,2/8/2015 6:19:39 AM,
89,0,439,4506.66666666667,4112.82051282051,4005.64102564103,4364.10256410256,4513.33333333333,4449.23076923077,4312.82051282051,4357.94871794872,4704.10256410256,4141.02564102564,4276.92307692308,4202.05128205128,4003.07692307692,4225.64102564103,1664,1692,54.081,53.9447975158691,0,0,0,0,2/8/2015 6:19:39 AM,
90,0,429,4505.12820512821,4116.41025641026,4001.53846153846,4363.58974358974,4511.28205128205,4453.33333333333,4314.35897435897,4358.97435897436,4722.5641025641,4134.35897435897,4292.82051282051,4200,4003.58974358974,4236.41025641026,1663,1694,54.089,53.9447975158691,0,0,0,0,2/8/2015 6:19:39 AM,
91,0,455,4492.82051282051,4107.17948717949,4007.17948717949,4357.4358974359,4526.66666666667,4449.23076923077,4314.35897435897,4352.82051282051,4721.53846153846,4128.71794871795,4293.33333333333,4199.48717948718,4008.20512820513,4249.23076923077,1664,1693,54.099,54.0699043273926,0,0,0,0,2/8/2015 6:19:39 AM,
92,0,409,4494.35897435897,4085.12820512821,4006.66666666667,4348.20512820513,4523.58974358974,4438.46153846154,4312.82051282051,4347.69230769231,4704.61538461539,4120,4276.92307692308,4198.46153846154,4004.10256410256,4246.15384615385,1663,1695,54.106,54.0699043273926,0,0,0,0,2/8/2015 6:19:39 AM,
93,0,439,4512.82051282051,4091.28205128205,3993.84615384615,4351.28205128205,4516.92307692308,4430.25641025641,4312.82051282051,4348.20512820513,4701.53846153846,4117.4358974359,4273.84615384615,4187.69230769231,4001.02564102564,4250.76923076923,1664,1694,54.113,54.0699043273926,0,0,0,0,2/8/2015 6:19:39 AM,
94,0,429,4522.05128205128,4113.84615384615,3991.28205128205,4357.94871794872,4521.02564102564,4431.28205128205,4311.79487179487,4349.74358974359,4708.71794871795,4121.53846153846,4291.28205128205,4188.20512820513,4004.61538461539,4253.84615384615,1663,1694,54.121,54.0699043273926,0,0,0,0,2/8/2015 6:19:39 AM,
95,0,455,4510.25641025641,4108.20512820513,4005.64102564103,4360.51282051282,4522.5641025641,4440.51282051282,4312.30769230769,4350.76923076923,4710.25641025641,4119.48717948718,4292.30769230769,4198.46153846154,4003.58974358974,4237.4358974359,1664,1692,54.128,54.1011810302734,0,0,0,0,2/8/2015 6:19:39 AM,
96,0,409,4503.58974358974,4104.10256410256,4015.38461538462,4366.15384615385,4522.05128205128,4447.17948717949,4312.82051282051,4356.41025641026,4716.41025641026,4121.53846153846,4271.79487179487,4202.5641025641,3997.4358974359,4221.53846153846,1663,1694,54.136,54.1011810302734,0,0,0,0,2/8/2015 6:19:39 AM,
97,0,439,4518.46153846154,4118.97435897436,4011.28205128205,4369.23076923077,4519.48717948718,4437.94871794872,4308.71794871795,4360.51282051282,4722.5641025641,4125.12820512821,4276.92307692308,4204.61538461538,4001.53846153846,4236.92307692308,1664,1694,54.144,54.1011810302734,0,0,0,0,2/8/2015 6:19:39 AM,
98,0,429,4530.25641025641,4115.89743589744,4004.61538461539,4362.5641025641,4519.48717948718,4419.48717948718,4308.71794871795,4353.84615384615,4713.33333333333,4121.53846153846,4300.51282051282,4200.51282051282,4015.89743589744,4264.10256410256,1663,1694,54.152,54.1011810302734,0,0,0,0,2/8/2015 6:19:39 AM,
99,0,455,4524.10256410256,4104.10256410256,4002.05128205128,4355.89743589744,4530.76923076923,4407.69230769231,4313.33333333333,4348.71794871795,4703.58974358974,4127.69230769231,4291.28205128205,4188.71794871795,4014.35897435898,4276.92307692308,1664,1693,54.159,54.1011810302734,0,0,0,0,2/8/2015 6:19:39 AM,
100,0,409,4522.05128205128,4115.38461538462,4006.15384615385,4358.46153846154,4541.02564102564,4415.38461538462,4313.84615384615,4353.33333333333,4710.25641025641,4137.4358974359,4273.33333333333,4183.07692307692,4003.07692307692,4282.05128205128,1663,1692,54.167,54.1011810302734,0,0,0,0,2/8/2015 6:19:39 AM,
101,0,439,4522.05128205128,4139.48717948718,4013.84615384615,4373.84615384615,4540.51282051282,4428.71794871795,4311.79487179487,4356.92307692308,4712.82051282051,4134.35897435897,4284.61538461538,4188.20512820513,4007.69230769231,4263.07692307692,1663,1693,54.175,54.1011810302734,0,0,0,0,2/8/2015 6:19:39 AM,
102,0,429,4509.23076923077,4137.4358974359,4020.51282051282,4376.41025641026,4527.69230769231,4424.10256410256,4311.79487179487,4356.41025641026,4706.66666666667,4124.61538461538,4283.07692307692,4201.53846153846,4005.64102564103,4228.20512820513,1664,1692,54.183,54.1011810302734,0,0,0,0,2/8/2015 6:19:39 AM,
103,0,455,4503.58974358974,4112.82051282051,4020.51282051282,4360.51282051282,4509.23076923077,4418.46153846154,4313.33333333333,4357.94871794872,4702.5641025641,4120.51282051282,4259.48717948718,4208.20512820513,3989.23076923077,4229.23076923077,1663,1694,54.192,54.1011810302734,0,0,0,0,2/8/2015 6:19:39 AM,
104,0,409,4509.23076923077,4107.69230769231,4008.71794871795,4358.97435897436,4507.17948717949,4428.20512820513,4313.84615384615,4360.51282051282,4689.74358974359,4122.5641025641,4265.64102564103,4185.64102564103,3991.28205128205,4265.12820512821,1664,1693,54.199,54.1011810302734,0,0,0,0,2/8/2015 6:19:39 AM,
105,0,439,4509.74358974359,4124.61538461538,3998.46153846154,4371.28205128205,4526.66666666667,4432.30769230769,4313.84615384615,4368.20512820513,4685.12820512821,4125.12820512821,4288.71794871795,4167.17948717949,4003.07692307692,4263.07692307692,1663,1693,54.207,54.1011810302734,0,0,0,0,2/8/2015 6:19:39 AM,
106,0,429,4505.12820512821,4127.69230769231,4006.66666666667,4365.12820512821,4524.10256410256,4421.53846153846,4313.33333333333,4379.48717948718,4701.53846153846,4121.53846153846,4275.89743589744,4181.02564102564,3990.76923076923,4209.74358974359,1663,1692,54.215,54.1011810302734,0,0,0,0,2/8/2015 6:19:39 AM,
107,0,455,4504.61538461538,4116.92307692308,4014.8717948718,4349.23076923077,4504.61538461538,4418.46153846154,4311.79487179487,4384.61538461538,4708.71794871795,4116.41025641026,4250.76923076923,4192.30769230769,3970.25641025641,4183.07692307692,1664,1691,54.223,54.195011138916,0,0,0,0,2/8/2015 6:19:39 AM,
108,0,409,4496.41025641026,4117.94871794872,4005.12820512821,4355.38461538462,4514.8717948718,4421.53846153846,4312.30769230769,4379.48717948718,4696.92307692308,4119.48717948718,4256.41025641026,4184.61538461538,3972.82051282051,4215.38461538462,1665,1691,54.231,54.195011138916,0,0,0,0,2/8/2015 6:19:39 AM,
109,0,439,4481.53846153846,4123.07692307692,4000.51282051282,4368.20512820513,4519.48717948718,4413.84615384615,4313.33333333333,4373.84615384615,4692.30769230769,4115.38461538462,4270.25641025641,4182.5641025641,3983.58974358974,4234.35897435897,1664,1692,54.239,54.195011138916,0,0,0,0,2/8/2015 6:19:39 AM,
110,0,429,4495.89743589744,4120,4005.12820512821,4362.5641025641,4496.92307692308,4402.05128205128,4312.30769230769,4371.28205128205,4691.79487179487,4102.05128205128,4270.25641025641,4185.12820512821,3986.15384615385,4219.48717948718,1665,1693,54.246,54.195011138916,0,0,0,0,2/8/2015 6:19:39 AM,
111,0,455,4524.10256410256,4117.94871794872,4002.5641025641,4357.4358974359,4509.74358974359,4397.94871794872,4311.28205128205,4367.69230769231,4682.05128205128,4105.12820512821,4278.97435897436,4182.5641025641,3989.74358974359,4237.4358974359,1665,1692,54.254,54.195011138916,0,0,0,0,2/8/2015 6:19:39 AM,
112,0,409,4515.89743589744,4120.51282051282,4005.64102564103,4356.92307692308,4528.71794871795,4395.38461538462,4311.79487179487,4366.15384615385,4677.94871794872,4121.53846153846,4283.07692307692,4187.17948717949,3990.25641025641,4251.28205128205,1665,1693,54.262,54.195011138916,0,0,0,0,2/8/2015 6:19:39 AM,
113,0,439,4496.92307692308,4124.61538461538,4013.33333333333,4353.84615384615,4497.94871794872,4393.33333333333,4310.25641025641,4373.84615384615,4683.07692307692,4128.20512820513,4262.5641025641,4195.38461538462,3984.61538461539,4217.4358974359,1665,1692,54.27,54.195011138916,0,0,0,0,2/8/2015 6:19:39 AM,
114,0,429,4506.15384615385,4125.12820512821,4007.69230769231,4362.5641025641,4494.8717948718,4405.12820512821,4309.74358974359,4386.66666666667,4684.61538461539,4124.61538461538,4261.53846153846,4200.51282051282,3987.69230769231,4200.51282051282,1664,1694,54.278,54.195011138916,0,0,0,0,2/8/2015 6:19:39 AM,
115,0,455,4505.12820512821,4126.15384615385,4001.02564102564,4371.79487179487,4525.12820512821,4424.10256410256,4312.82051282051,4393.33333333333,4683.07692307692,4125.12820512821,4288.20512820513,4200.51282051282,3998.46153846154,4218.97435897436,1665,1694,54.286,54.195011138916,0,0,0,0,2/8/2015 6:19:39 AM,
116,0,409,4496.41025641026,4124.61538461538,4007.17948717949,4361.02564102564,4501.02564102564,4431.79487179487,4313.33333333333,4395.89743589744,4690.25641025641,4127.69230769231,4286.66666666667,4202.05128205128,3994.35897435898,4229.74358974359,1663,1694,54.293,54.195011138916,0,0,0,0,2/8/2015 6:19:39 AM,
117,0,439,4515.38461538462,4119.48717948718,4010.76923076923,4349.74358974359,4483.07692307692,4429.23076923077,4312.30769230769,4399.48717948718,4697.4358974359,4125.12820512821,4262.05128205128,4205.12820512821,3981.02564102564,4223.58974358974,1663,1695,54.301,54.195011138916,0,0,0,0,2/8/2015 6:19:39 AM,
118,0,429,4530.25641025641,4123.58974358974,4004.10256410256,4358.46153846154,4523.58974358974,4426.66666666667,4312.82051282051,4403.07692307692,4692.30769230769,4121.02564102564,4268.71794871795,4195.89743589744,3984.61538461539,4236.41025641026,1663,1693,54.309,54.195011138916,0,0,0,0,2/8/2015 6:19:39 AM,
119,0,455,4523.07692307692,4141.02564102564,4002.05128205128,4371.28205128205,4538.97435897436,4431.28205128205,4312.82051282051,4404.10256410256,4684.10256410256,4121.53846153846,4293.84615384615,4190.25641025641,3998.97435897436,4271.28205128205,1663,1694,54.317,54.195011138916,0,0,0,0,2/8/2015 6:19:39 AM,
120,0,409,4519.48717948718,4142.05128205128,4015.89743589744,4366.66666666667,4511.79487179487,4430.76923076923,4311.79487179487,4397.94871794872,4681.53846153846,4133.84615384615,4288.20512820513,4198.46153846154,3998.46153846154,4272.82051282051,1662,1694,54.325,54.195011138916,0,0,0,0,2/8/2015 6:19:39 AM,
121,0,439,4525.12820512821,4124.61538461538,4024.10256410256,4358.46153846154,4501.53846153846,4412.82051282051,4312.30769230769,4397.4358974359,4682.05128205128,4145.12820512821,4265.12820512821,4206.66666666667,3986.66666666667,4244.10256410256,1663,1695,54.332,54.195011138916,0,0,0,0,2/8/2015 6:19:39 AM,
122,0,429,4527.69230769231,4128.20512820513,4010.25641025641,4367.17948717949,4512.82051282051,4404.10256410256,4313.84615384615,4405.64102564103,4683.07692307692,4135.89743589744,4271.79487179487,4204.10256410256,3991.79487179487,4244.61538461538,1663,1695,54.34,54.195011138916,0,0,0,0,2/8/2015 6:19:39 AM,
123,0,455,4520.51282051282,4142.5641025641,3994.8717948718,4371.79487179487,4534.35897435897,4421.53846153846,4313.84615384615,4412.30769230769,4678.97435897436,4123.58974358974,4297.94871794872,4197.94871794872,4013.84615384615,4264.10256410256,1663,1696,54.348,54.3201179504395,0,0,0,0,2/8/2015 6:19:39 AM,
124,0,409,4503.58974358974,4138.97435897436,3990.25641025641,4357.4358974359,4547.69230769231,4436.41025641026,4313.84615384615,4416.92307692308,4673.84615384615,4126.66666666667,4292.30769230769,4197.4358974359,4011.28205128205,4259.48717948718,1663,1694,54.356,54.3201179504395,0,0,0,0,2/8/2015 6:19:39 AM,
125,0,439,4503.58974358974,4130.25641025641,3988.71794871795,4355.38461538462,4532.30769230769,4438.46153846154,4313.84615384615,4430.25641025641,4681.53846153846,4126.15384615385,4277.94871794872,4199.48717948718,3991.28205128205,4260.51282051282,1662,1696,54.364,54.3201179504395,0,0,0,0,2/8/2015 6:19:39 AM,
126,0,429,4514.35897435897,4125.64102564103,3994.8717948718,4363.58974358974,4508.71794871795,4441.53846153846,4313.84615384615,4444.61538461538,4677.4358974359,4114.8717948718,4278.97435897436,4194.35897435897,3988.71794871795,4267.69230769231,1664,1695,54.371,54.3201179504395,0,0,0,0,2/8/2015 6:19:39 AM,
127,0,455,4503.07692307692,4119.48717948718,3997.94871794872,4356.41025641026,4503.07692307692,4438.46153846154,4313.84615384615,4445.12820512821,4650.76923076923,4111.28205128205,4269.23076923077,4184.61538461538,3990.76923076923,4249.23076923077,1663,1695,54.378,54.3201179504395,0,0,0,0,2/8/2015 6:19:39 AM,
128,0,409,4487.17948717949,4121.53846153846,3992.30769230769,4357.4358974359,4513.84615384615,4430.76923076923,4313.84615384615,4446.66666666667,4649.23076923077,4111.79487179487,4262.5641025641,4188.20512820513,3985.12820512821,4225.12820512821,1664,1695,54.387,54.3201179504395,0,0,0,0,2/8/2015 6:19:39 AM,
0,0,460,4489.74358974359,4134.8717948718,3997.94871794872,4374.35897435897,4521.02564102564,4430.25641025641,4313.84615384615,4456.41025641026,4676.92307692308,4110.76923076923,4281.02564102564,4200,3988.71794871795,4228.71794871795,1663,1693,54.394,54.3201179504395,0,0,0,0,2/8/2015 6:19:39 AM,
1,0,442,4506.66666666667,4138.97435897436,4004.61538461539,4372.30769230769,4523.07692307692,4430.76923076923,4313.84615384615,4463.07692307692,4682.5641025641,4117.4358974359,4284.61538461538,4199.48717948718,3996.41025641026,4251.28205128205,1663,1694,54.402,54.3201179504395,0,0,0,0,2/8/2015 6:19:39 AM,
2,0,464,4521.02564102564,4128.20512820513,4002.5641025641,4354.8717948718,4522.5641025641,4424.61538461538,4313.84615384615,4462.5641025641,4664.61538461539,4124.61538461538,4271.28205128205,4196.92307692308,3990.76923076923,4240.51282051282,1664,1693,54.41,54.3201179504395,0,0,0,0,2/8/2015 6:19:39 AM,
3,0,493,4515.38461538462,4118.97435897436,4006.15384615385,4359.48717948718,4524.10256410256,4424.61538461538,4313.84615384615,4458.46153846154,4661.02564102564,4120.51282051282,4273.84615384615,4203.07692307692,3988.20512820513,4227.69230769231,1664,1693,54.417,54.3201179504395,0,0,0,0,2/8/2015 6:19:39 AM,
4,0,482,4501.53846153846,4127.69230769231,4003.07692307692,4371.79487179487,4542.05128205128,4440.51282051282,4313.84615384615,4461.02564102564,4669.74358974359,4118.97435897436,4280,4204.10256410256,3995.38461538462,4257.4358974359,1663,1694,54.425,54.3201179504395,0,0,0,0,2/8/2015 6:19:39 AM,
5,0,467,4500.51282051282,4142.5641025641,3993.84615384615,4367.69230769231,4541.02564102564,4451.79487179487,4313.33333333333,4471.28205128205,4676.41025641026,4120.51282051282,4283.58974358974,4202.5641025641,3997.4358974359,4255.89743589744,1663,1694,54.433,54.3201179504395,0,0,0,0,2/8/2015 6:19:39 AM,
6,0,482,4506.15384615385,4142.5641025641,4003.58974358974,4368.20512820513,4513.33333333333,4442.05128205128,4313.84615384615,4479.48717948718,4677.4358974359,4114.8717948718,4296.41025641026,4206.66666666667,4005.12820512821,4231.79487179487,1663,1692,54.441,54.3201179504395,0,0,0,0,2/8/2015 6:19:39 AM,
7,0,0,4507.17948717949,4127.69230769231,4017.4358974359,4371.79487179487,4518.46153846154,4427.17948717949,4313.84615384615,4477.4358974359,4675.89743589744,4110.76923076923,4298.46153846154,4211.28205128205,4010.76923076923,4247.17948717949,1663,1691,54.449,54.3201179504395,0,0,0,0,2/8/2015 6:19:39 AM,
8,0,407,4505.64102564103,4124.61538461538,4007.17948717949,4356.92307692308,4544.10256410256,4424.61538461538,4313.33333333333,4478.46153846154,4668.71794871795,4117.94871794872,4280,4209.23076923077,3992.30769230769,4260.51282051282,1663,1690,54.457,54.3201179504395,0,0,0,0,2/8/2015 6:19:39 AM,
9,0,427,4506.15384615385,4133.33333333333,3996.92307692308,4352.82051282051,4532.82051282051,4418.46153846154,4315.38461538462,4486.15384615385,4651.79487179487,4126.66666666667,4272.30769230769,4205.64102564103,3984.61538461539,4248.71794871795,1663,1690,54.464,54.3201179504395,0,0,0,0,2/8/2015 6:19:39 AM,
10,0,429,4514.35897435897,4128.71794871795,4006.15384615385,4365.64102564103,4511.28205128205,4404.61538461538,4318.46153846154,4491.28205128205,4651.28205128205,4121.53846153846,4288.71794871795,4210.76923076923,4000,4264.10256410256,1663,1690,54.472,54.4452247619629,0,0,0,0,2/8/2015 6:19:39 AM,
11,0,455,4522.05128205128,4118.97435897436,4008.71794871795,4368.71794871795,4516.92307692308,4408.20512820513,4319.48717948718,4491.79487179487,4669.74358974359,4110.25641025641,4299.48717948718,4212.30769230769,4005.64102564103,4279.48717948718,1663,1690,54.48,54.4452247619629,0,0,0,0,2/8/2015 6:19:39 AM,
12,0,409,4525.64102564103,4126.66666666667,3996.92307692308,4363.07692307692,4526.66666666667,4428.20512820513,4318.46153846154,4492.82051282051,4675.89743589744,4115.38461538462,4288.20512820513,4207.17948717949,3997.4358974359,4252.30769230769,1664,1689,54.488,54.4452247619629,0,0,0,0,2/8/2015 6:19:39 AM,
13,0,439,4523.58974358974,4129.74358974359,3994.8717948718,4357.4358974359,4520,4435.38461538462,4317.94871794872,4499.48717948718,4667.17948717949,4124.61538461538,4275.38461538462,4212.30769230769,3991.28205128205,4228.71794871795,1663,1691,54.496,54.4452247619629,0,0,0,0,2/8/2015 6:19:39 AM,
14,0,429,4509.74358974359,4117.4358974359,4007.17948717949,4348.20512820513,4504.10256410256,4424.10256410256,4317.94871794872,4507.17948717949,4663.58974358974,4117.94871794872,4286.15384615385,4220.51282051282,3989.74358974359,4227.17948717949,1664,1690,54.503,54.4452247619629,0,0,0,0,2/8/2015 6:19:39 AM,
15,0,455,4506.15384615385,4112.82051282051,4006.15384615385,4350.25641025641,4508.71794871795,4420.51282051282,4318.46153846154,4507.69230769231,4665.64102564103,4108.71794871795,4300.51282051282,4213.33333333333,3991.28205128205,4234.35897435897,1663,1693,54.511,54.4452247619629,0,0,0,0,2/8/2015 6:19:39 AM,
16,0,0,4520.51282051282,4125.12820512821,3991.28205128205,4365.64102564103,4540,4430.25641025641,4318.46153846154,4501.53846153846,4660.51282051282,4107.69230769231,4291.28205128205,4198.97435897436,3996.92307692308,4261.02564102564,1664,1692,54.519,54.4452247619629,0,0,0,0,2/8/2015 6:19:39 AM,
17,0,0,4527.17948717949,4129.23076923077,3988.20512820513,4358.46153846154,4545.64102564103,4429.74358974359,4317.94871794872,4498.46153846154,4657.94871794872,4105.64102564103,4282.5641025641,4200,4000,4270.76923076923,1663,1692,54.527,54.4452247619629,0,0,0,0,2/8/2015 6:19:39 AM,
18,0,0,4517.94871794872,4110.25641025641,3995.89743589744,4337.94871794872,4515.89743589744,4411.28205128205,4317.94871794872,4501.53846153846,4661.53846153846,4102.05128205128,4285.64102564103,4206.66666666667,3994.35897435898,4228.20512820513,1664,1692,54.535,54.4452247619629,0,0,0,0,2/8/2015 6:19:39 AM,
19,0,0,4507.69230769231,4103.07692307692,4006.15384615385,4350.76923076923,4497.94871794872,4404.61538461538,4318.46153846154,4505.64102564103,4665.64102564103,4109.23076923077,4278.46153846154,4217.4358974359,3983.07692307692,4217.4358974359,1663,1690,54.543,54.4452247619629,0,0,0,0,2/8/2015 6:19:39 AM,
20,0,0,4513.84615384615,4129.74358974359,4010.25641025641,4380.51282051282,4507.69230769231,4421.02564102564,4317.94871794872,4506.15384615385,4664.10256410256,4122.05128205128,4276.92307692308,4217.4358974359,3989.74358974359,4266.66666666667,1664,1690,54.55,54.4452247619629,0,0,0,0,2/8/2015 6:19:39 AM,
21,0,0,4531.79487179487,4149.23076923077,4004.61538461539,4376.41025641026,4531.79487179487,4433.84615384615,4317.94871794872,4507.69230769231,4664.10256410256,4119.48717948718,4300,4208.71794871795,4010.25641025641,4271.28205128205,1665,1690,54.558,54.4452247619629,0,0,0,0,2/8/2015 6:19:39 AM,
22,0,0,4518.46153846154,4130.76923076923,4004.10256410256,4354.8717948718,4538.97435897436,4430.76923076923,4317.94871794872,4515.89743589744,4660.51282051282,4105.12820512821,4301.02564102564,4213.84615384615,4005.64102564103,4235.89743589744,1664,1691,54.566,54.4452247619629,0,0,0,0,2/8/2015 6:19:39 AM,
23,0,0,4503.58974358974,4114.35897435897,4010.76923076923,4360.51282051282,4527.17948717949,4424.61538461538,4317.94871794872,4522.05128205128,4649.74358974359,4105.12820512821,4280,4221.53846153846,3995.38461538462,4251.79487179487,1663,1692,54.576,54.4452247619629,0,0,0,0,2/8/2015 6:19:39 AM,
24,0,0,4536.41025641026,4128.20512820513,4013.84615384615,4367.69230769231,4522.5641025641,4428.71794871795,4317.94871794872,4522.5641025641,4652.30769230769,4113.84615384615,4285.12820512821,4214.8717948718,4003.58974358974,4264.10256410256,1662,1693,54.584,54.4452247619629,0,0,0,0,2/8/2015 6:19:39 AM,
25,0,0,4551.79487179487,4130.76923076923,4014.35897435898,4359.48717948718,4522.05128205128,4434.35897435897,4317.94871794872,4522.05128205128,4653.84615384615,4109.23076923077,4296.41025641026,4212.82051282051,4008.71794871795,4218.97435897436,1663,1692,54.591,54.4452247619629,0,0,0,0,2/8/2015 6:19:39 AM,
26,0,0,4523.58974358974,4105.64102564103,4010.25641025641,4358.46153846154,4523.07692307692,4429.74358974359,4318.46153846154,4519.48717948718,4646.15384615385,4105.64102564103,4289.74358974359,4218.97435897436,4003.07692307692,4214.35897435897,1662,1694,54.599,54.5703353881836,0,0,0,0,2/8/2015 6:19:39 AM,
27,0,0,4521.02564102564,4095.89743589744,3996.41025641026,4372.30769230769,4534.35897435897,4423.07692307692,4318.46153846154,4521.53846153846,4653.84615384615,4116.41025641026,4287.69230769231,4215.89743589744,4003.07692307692,4263.58974358974,1663,1693,54.605,54.5703353881836,0,0,0,0,2/8/2015 6:19:39 AM,
28,0,0,4531.28205128205,4104.10256410256,4000.51282051282,4372.82051282051,4545.12820512821,4423.07692307692,4317.94871794872,4527.17948717949,4667.17948717949,4125.12820512821,4290.76923076923,4215.38461538462,4005.12820512821,4258.97435897436,1662,1693,54.613,54.5703353881836,0,0,0,0,2/8/2015 6:19:39 AM,
29,0,0,4523.07692307692,4094.8717948718,4017.4358974359,4352.30769230769,4531.79487179487,4432.30769230769,4318.46153846154,4524.61538461538,4664.10256410256,4125.64102564103,4290.76923076923,4221.02564102564,4007.69230769231,4222.5641025641,1663,1693,54.621,54.5703353881836,0,0,0,0,2/8/2015 6:19:39 AM,
30,0,0,4523.58974358974,4081.02564102564,4007.17948717949,4347.69230769231,4528.20512820513,4442.5641025641,4318.46153846154,4526.66666666667,4659.48717948718,4123.07692307692,4292.30769230769,4211.79487179487,4009.74358974359,4241.02564102564,1664,1693,54.629,54.6016120910645,0,0,0,0,2/8/2015 6:19:39 AM,
31,0,0,4516.41025641026,4084.10256410256,3983.07692307692,4360.51282051282,4542.05128205128,4436.92307692308,4315.38461538462,4540,4660,4122.05128205128,4286.66666666667,4197.94871794872,3996.92307692308,4254.35897435897,1664,1694,54.636,54.6016120910645,0,0,0,0,2/8/2015 6:19:39 AM,
32,0,0,4502.5641025641,4091.28205128205,3990.25641025641,4368.20512820513,4520,4424.61538461538,4311.28205128205,4536.92307692308,4657.4358974359,4124.61538461538,4275.89743589744,4198.46153846154,3986.66666666667,4234.35897435897,1665,1695,54.644,54.6016120910645,0,0,0,0,2/8/2015 6:19:39 AM,
33,0,0,4516.92307692308,4092.30769230769,4014.8717948718,4370.76923076923,4497.94871794872,4429.23076923077,4310.76923076923,4522.5641025641,4660,4124.10256410256,4286.15384615385,4207.17948717949,4002.5641025641,4247.69230769231,1665,1696,54.652,54.6016120910645,0,0,0,0,2/8/2015 6:19:39 AM,
34,0,0,4529.23076923077,4092.30769230769,4020,4369.74358974359,4529.74358974359,4436.41025641026,4312.82051282051,4521.53846153846,4657.94871794872,4118.97435897436,4298.46153846154,4213.84615384615,4015.89743589744,4252.82051282051,1665,1695,54.66,54.6016120910645,0,0,0,0,2/8/2015 6:19:39 AM,
35,0,0,4524.10256410256,4094.8717948718,4009.74358974359,4362.5641025641,4553.33333333333,4427.69230769231,4315.89743589744,4526.66666666667,4650.76923076923,4123.07692307692,4287.69230769231,4220,4010.76923076923,4234.35897435897,1665,1695,54.668,54.6016120910645,0,0,0,0,2/8/2015 6:19:39 AM,
36,0,0,4520,4093.33333333333,4003.58974358974,4355.38461538462,4522.05128205128,4424.10256410256,4318.46153846154,4525.12820512821,4646.66666666667,4133.84615384615,4275.38461538462,4215.89743589744,4000.51282051282,4248.71794871795,1666,1693,54.675,54.6016120910645,0,0,0,0,2/8/2015 6:19:39 AM,
37,0,0,4507.69230769231,4087.69230769231,4002.05128205128,4357.4358974359,4515.89743589744,4433.33333333333,4317.94871794872,4523.07692307692,4637.94871794872,4132.30769230769,4279.48717948718,4206.66666666667,3990.25641025641,4258.97435897436,1664,1693,54.683,54.6016120910645,0,0,0,0,2/8/2015 6:19:39 AM,
38,0,0,4501.02564102564,4085.12820512821,4003.58974358974,4357.4358974359,4545.64102564103,4426.15384615385,4316.41025641026,4523.07692307692,4626.66666666667,4117.94871794872,4285.12820512821,4211.28205128205,3988.71794871795,4225.12820512821,1665,1692,54.691,54.6016120910645,0,0,0,0,2/8/2015 6:19:39 AM,
39,0,0,4519.48717948718,4078.46153846154,4005.64102564103,4352.30769230769,4530.25641025641,4410.25641025641,4316.92307692308,4524.61538461538,4633.84615384615,4104.61538461538,4281.53846153846,4216.41025641026,3996.92307692308,4224.61538461538,1665,1691,54.699,54.6016120910645,0,0,0,0,2/8/2015 6:19:39 AM,
40,0,0,4529.23076923077,4072.82051282051,3998.46153846154,4342.05128205128,4497.94871794872,4413.84615384615,4316.92307692308,4526.15384615385,4647.17948717949,4106.66666666667,4276.92307692308,4206.15384615385,3995.89743589744,4256.41025641026,1664,1691,54.707,54.6016120910645,0,0,0,0,2/8/2015 6:19:39 AM,
41,0,0,4517.4358974359,4081.02564102564,3991.28205128205,4333.84615384615,4498.97435897436,4430.76923076923,4316.92307692308,4526.15384615385,4641.02564102564,4120.51282051282,4276.41025641026,4196.41025641026,3988.20512820513,4254.35897435897,1665,1691,54.715,54.6016120910645,0,0,0,0,2/8/2015 6:19:39 AM,
42,0,0,4527.69230769231,4093.33333333333,3994.35897435898,4334.8717948718,4510.25641025641,4438.46153846154,4316.92307692308,4524.61538461538,4640,4126.15384615385,4283.58974358974,4201.53846153846,3988.20512820513,4245.64102564103,1664,1694,54.722,54.695442199707,0,0,0,0,2/8/2015 6:19:39 AM,
43,0,0,4541.53846153846,4090.76923076923,4010.76923076923,4334.8717948718,4513.84615384615,4437.94871794872,4316.92307692308,4514.35897435897,4643.07692307692,4119.48717948718,4281.53846153846,4216.92307692308,3984.10256410256,4241.02564102564,1664,1694,54.73,54.695442199707,0,0,0,0,2/8/2015 6:19:39 AM,
44,0,0,4533.84615384615,4083.07692307692,4025.12820512821,4331.28205128205,4517.4358974359,4435.38461538462,4316.92307692308,4503.07692307692,4629.23076923077,4118.46153846154,4267.69230769231,4224.10256410256,3980,4243.58974358974,1664,1695,54.738,54.695442199707,0,0,0,0,2/8/2015 6:19:39 AM,
45,0,0,4544.10256410256,4093.33333333333,4015.38461538462,4338.46153846154,4527.69230769231,4421.53846153846,4316.92307692308,4502.05128205128,4624.10256410256,4123.07692307692,4279.48717948718,4209.23076923077,3996.41025641026,4271.28205128205,1664,1695,54.746,54.695442199707,0,0,0,0,2/8/2015 6:19:39 AM,
46,0,0,4570.25641025641,4114.8717948718,3996.92307692308,4343.58974358974,4538.97435897436,4410.76923076923,4316.92307692308,4506.15384615385,4633.33333333333,4120,4306.15384615385,4196.41025641026,4011.79487179487,4292.30769230769,1663,1694,54.754,54.695442199707,0,0,0,0,2/8/2015 6:19:39 AM,
47,0,0,4567.17948717949,4116.92307692308,3990.76923076923,4331.79487179487,4530.76923076923,4426.15384615385,4316.92307692308,4509.74358974359,4631.79487179487,4125.12820512821,4297.94871794872,4203.07692307692,4006.66666666667,4282.5641025641,1664,1693,54.761,54.695442199707,0,0,0,0,2/8/2015 6:19:39 AM,
48,0,0,4546.66666666667,4103.58974358974,3988.20512820513,4324.61538461538,4505.64102564103,4447.17948717949,4316.92307692308,4518.97435897436,4627.69230769231,4140,4270.76923076923,4200,3999.48717948718,4273.84615384615,1662,1691,54.769,54.695442199707,0,0,0,0,2/8/2015 6:19:39 AM,
49,0,0,4538.97435897436,4104.61538461538,3990.76923076923,4325.64102564103,4502.05128205128,4449.23076923077,4316.92307692308,4521.53846153846,4636.41025641026,4137.4358974359,4275.89743589744,4191.28205128205,4008.71794871795,4276.92307692308,1663,1691,54.777,54.695442199707,0,0,0,0,2/8/2015 6:19:39 AM,
50,0,0,4540.51282051282,4105.64102564103,3997.94871794872,4320,4513.33333333333,4441.02564102564,4316.92307692308,4511.79487179487,4633.33333333333,4123.58974358974,4289.74358974359,4196.41025641026,4016.41025641026,4269.23076923077,1663,1691,54.787,54.695442199707,0,0,0,0,2/8/2015 6:19:39 AM,
